Date:	2023-09-18		
Time:	20:04		
Sample name:	Pellets		
Position:	432.600011	mm	
Sample surface:	6.004057	cm	
Tube anode:	Mo		
Tube voltage:	30	kV	
Tube current:	50	mA	
Comments	not in position		
Gain	5.810000		
peaking_time	0.300000	m-sec	
trigger_threshold	30.000000	V	
mca_bin_width	2.000000	no:	
number_mca_channels	2048.000000	no:	
gap_time	0.100000	m-sec	
trigger_peaking_time	0.050000	m-sec	
livetime	17.227431	seconds	
runtime	20.000286	seconds	
input_count_rate	122698.561603	cps	
output_count_rate	105687.536026	cps	
triggers	2366209.000000	seconds	
events_in_run	2104337.000000	seconds	
channel	content		
 1.00	 0.00
 2.00	 0.00
 3.00	 0.00
 4.00	 0.00
 5.00	 0.00
 6.00	 0.00
 7.00	 0.00
 8.00	 0.00
 9.00	 0.00
10.00	 0.00
11.00	 0.00
12.00	 0.00
13.00	 0.00
14.00	 0.00
15.00	 0.00
16.00	 0.00
17.00	 0.00
18.00	 0.00
19.00	 0.00
20.00	 0.00
21.00	 0.00
22.00	 0.00
23.00	 0.00
24.00	 0.00
25.00	 0.00
26.00	 0.00
27.00	 0.00
28.00	 0.00
29.00	 0.00
30.00	 0.00
31.00	 3.00
32.00	 3.00
33.00	 3.00
34.00	 7.00
35.00	 6.00
36.00	11.00
37.00	 8.00
38.00	29.00
39.00	27.00
40.00	38.00
41.00	62.00
42.00	52.00
43.00	75.00
44.00	90.00
45.00	110.00
46.00	140.00
47.00	152.00
48.00	171.00
49.00	172.00
50.00	219.00
51.00	203.00
52.00	218.00
53.00	249.00
54.00	282.00
55.00	267.00
56.00	289.00
57.00	284.00
58.00	342.00
59.00	320.00
60.00	342.00
61.00	346.00
62.00	315.00
63.00	373.00
64.00	347.00
65.00	322.00
66.00	328.00
67.00	342.00
68.00	329.00
69.00	344.00
70.00	351.00
71.00	337.00
72.00	331.00
73.00	364.00
74.00	361.00
75.00	353.00
76.00	337.00
77.00	336.00
78.00	329.00
79.00	356.00
80.00	337.00
81.00	340.00
82.00	318.00
83.00	324.00
84.00	340.00
85.00	322.00
86.00	331.00
87.00	348.00
88.00	361.00
89.00	312.00
90.00	336.00
91.00	339.00
92.00	329.00
93.00	317.00
94.00	276.00
95.00	285.00
96.00	290.00
97.00	290.00
98.00	270.00
99.00	267.00
100.00	283.00
101.00	295.00
102.00	283.00
103.00	253.00
104.00	319.00
105.00	259.00
106.00	289.00
107.00	260.00
108.00	246.00
109.00	251.00
110.00	269.00
111.00	265.00
112.00	227.00
113.00	273.00
114.00	260.00
115.00	222.00
116.00	248.00
117.00	257.00
118.00	277.00
119.00	296.00
120.00	262.00
121.00	230.00
122.00	227.00
123.00	244.00
124.00	195.00
125.00	263.00
126.00	234.00
127.00	187.00
128.00	220.00
129.00	189.00
130.00	205.00
131.00	203.00
132.00	207.00
133.00	191.00
134.00	222.00
135.00	203.00
136.00	218.00
137.00	292.00
138.00	399.00
139.00	505.00
140.00	615.00
141.00	860.00
142.00	969.00
143.00	1174.00
144.00	1194.00
145.00	1365.00
146.00	1236.00
147.00	1104.00
148.00	996.00
149.00	805.00
150.00	786.00
151.00	673.00
152.00	639.00
153.00	560.00
154.00	535.00
155.00	471.00
156.00	447.00
157.00	430.00
158.00	406.00
159.00	567.00
160.00	882.00
161.00	1423.00
162.00	2417.00
163.00	3882.00
164.00	5955.00
165.00	8095.00
166.00	10633.00
167.00	12897.00
168.00	14486.00
169.00	15153.00
170.00	14600.00
171.00	12953.00
172.00	11002.00
173.00	8480.00
174.00	6381.00
175.00	4511.00
176.00	3172.00
177.00	2193.00
178.00	1640.00
179.00	1274.00
180.00	943.00
181.00	817.00
182.00	660.00
183.00	564.00
184.00	530.00
185.00	482.00
186.00	490.00
187.00	534.00
188.00	516.00
189.00	543.00
190.00	560.00
191.00	528.00
192.00	487.00
193.00	427.00
194.00	394.00
195.00	370.00
196.00	310.00
197.00	310.00
198.00	234.00
199.00	242.00
200.00	194.00
201.00	205.00
202.00	184.00
203.00	185.00
204.00	200.00
205.00	194.00
206.00	175.00
207.00	160.00
208.00	181.00
209.00	176.00
210.00	201.00
211.00	200.00
212.00	180.00
213.00	199.00
214.00	198.00
215.00	192.00
216.00	175.00
217.00	207.00
218.00	234.00
219.00	237.00
220.00	237.00
221.00	243.00
222.00	246.00
223.00	247.00
224.00	229.00
225.00	221.00
226.00	209.00
227.00	190.00
228.00	193.00
229.00	165.00
230.00	187.00
231.00	165.00
232.00	173.00
233.00	181.00
234.00	159.00
235.00	161.00
236.00	167.00
237.00	176.00
238.00	157.00
239.00	162.00
240.00	161.00
241.00	166.00
242.00	159.00
243.00	144.00
244.00	212.00
245.00	134.00
246.00	161.00
247.00	167.00
248.00	185.00
249.00	186.00
250.00	183.00
251.00	187.00
252.00	185.00
253.00	221.00
254.00	198.00
255.00	228.00
256.00	190.00
257.00	231.00
258.00	199.00
259.00	182.00
260.00	202.00
261.00	193.00
262.00	238.00
263.00	240.00
264.00	258.00
265.00	271.00
266.00	264.00
267.00	294.00
268.00	286.00
269.00	281.00
270.00	269.00
271.00	262.00
272.00	240.00
273.00	232.00
274.00	241.00
275.00	249.00
276.00	239.00
277.00	316.00
278.00	427.00
279.00	532.00
280.00	730.00
281.00	942.00
282.00	1174.00
283.00	1481.00
284.00	1757.00
285.00	1965.00
286.00	2124.00
287.00	2131.00
288.00	2079.00
289.00	1833.00
290.00	1676.00
291.00	1322.00
292.00	1046.00
293.00	924.00
294.00	664.00
295.00	466.00
296.00	364.00
297.00	283.00
298.00	254.00
299.00	219.00
300.00	225.00
301.00	252.00
302.00	265.00
303.00	310.00
304.00	349.00
305.00	447.00
306.00	495.00
307.00	598.00
308.00	739.00
309.00	1066.00
310.00	1465.00
311.00	2085.00
312.00	3013.00
313.00	4533.00
314.00	6319.00
315.00	8757.00
316.00	11447.00
317.00	14705.00
318.00	17417.00
319.00	20053.00
320.00	21784.00
321.00	22131.00
322.00	21877.00
323.00	20568.00
324.00	18117.00
325.00	15253.00
326.00	12278.00
327.00	9447.00
328.00	6899.00
329.00	4796.00
330.00	3217.00
331.00	2129.00
332.00	1357.00
333.00	909.00
334.00	613.00
335.00	506.00
336.00	516.00
337.00	564.00
338.00	654.00
339.00	863.00
340.00	1059.00
341.00	1445.00
342.00	1842.00
343.00	2334.00
344.00	2897.00
345.00	3543.00
346.00	4448.00
347.00	5366.00
348.00	6715.00
349.00	8451.00
350.00	10418.00
351.00	13242.00
352.00	16193.00
353.00	19632.00
354.00	22727.00
355.00	25795.00
356.00	28107.00
357.00	29479.00
358.00	29092.00
359.00	27783.00
360.00	25000.00
361.00	22227.00
362.00	18164.00
363.00	14272.00
364.00	10799.00
365.00	7740.00
366.00	5352.00
367.00	3455.00
368.00	2305.00
369.00	1476.00
370.00	939.00
371.00	653.00
372.00	496.00
373.00	422.00
374.00	407.00
375.00	392.00
376.00	461.00
377.00	594.00
378.00	744.00
379.00	932.00
380.00	1134.00
381.00	1502.00
382.00	1970.00
383.00	2403.00
384.00	3009.00
385.00	3590.00
386.00	3969.00
387.00	4357.00
388.00	4459.00
389.00	4723.00
390.00	4280.00
391.00	4036.00
392.00	3677.00
393.00	3125.00
394.00	2526.00
395.00	2025.00
396.00	1615.00
397.00	1309.00
398.00	974.00
399.00	763.00
400.00	584.00
401.00	552.00
402.00	424.00
403.00	377.00
404.00	358.00
405.00	365.00
406.00	358.00
407.00	312.00
408.00	335.00
409.00	296.00
410.00	312.00
411.00	307.00
412.00	299.00
413.00	312.00
414.00	348.00
415.00	348.00
416.00	366.00
417.00	375.00
418.00	419.00
419.00	470.00
420.00	555.00
421.00	640.00
422.00	802.00
423.00	963.00
424.00	1298.00
425.00	1788.00
426.00	2622.00
427.00	3648.00
428.00	4715.00
429.00	6301.00
430.00	7995.00
431.00	9875.00
432.00	11685.00
433.00	13715.00
434.00	15036.00
435.00	15863.00
436.00	16847.00
437.00	16386.00
438.00	15658.00
439.00	14220.00
440.00	12697.00
441.00	10852.00
442.00	9144.00
443.00	7415.00
444.00	6119.00
445.00	4803.00
446.00	4157.00
447.00	3555.00
448.00	3222.00
449.00	2862.00
450.00	2698.00
451.00	2461.00
452.00	2344.00
453.00	2218.00
454.00	1936.00
455.00	1699.00
456.00	1603.00
457.00	1434.00
458.00	1294.00
459.00	1258.00
460.00	1244.00
461.00	1314.00
462.00	1288.00
463.00	1471.00
464.00	1548.00
465.00	1665.00
466.00	1916.00
467.00	2066.00
468.00	2364.00
469.00	2604.00
470.00	2789.00
471.00	2984.00
472.00	3333.00
473.00	3737.00
474.00	3899.00
475.00	4148.00
476.00	4298.00
477.00	4329.00
478.00	4190.00
479.00	4250.00
480.00	3777.00
481.00	3463.00
482.00	3048.00
483.00	2583.00
484.00	2291.00
485.00	2026.00
486.00	1604.00
487.00	1306.00
488.00	1211.00
489.00	1119.00
490.00	1007.00
491.00	909.00
492.00	851.00
493.00	914.00
494.00	908.00
495.00	1023.00
496.00	1000.00
497.00	970.00
498.00	997.00
499.00	1041.00
500.00	1110.00
501.00	1250.00
502.00	1175.00
503.00	1228.00
504.00	1267.00
505.00	1308.00
506.00	1331.00
507.00	1345.00
508.00	1375.00
509.00	1466.00
510.00	1494.00
511.00	1546.00
512.00	1594.00
513.00	1635.00
514.00	1787.00
515.00	1866.00
516.00	1980.00
517.00	2196.00
518.00	2327.00
519.00	2472.00
520.00	2615.00
521.00	2672.00
522.00	2827.00
523.00	2706.00
524.00	2850.00
525.00	2739.00
526.00	2648.00
527.00	2534.00
528.00	2462.00
529.00	2356.00
530.00	2130.00
531.00	2104.00
532.00	1916.00
533.00	1823.00
534.00	1787.00
535.00	1828.00
536.00	1752.00
537.00	1720.00
538.00	1792.00
539.00	1760.00
540.00	1832.00
541.00	1794.00
542.00	1881.00
543.00	1804.00
544.00	1883.00
545.00	1843.00
546.00	1792.00
547.00	1823.00
548.00	1906.00
549.00	1919.00
550.00	1919.00
551.00	1956.00
552.00	2058.00
553.00	2203.00
554.00	2348.00
555.00	2606.00
556.00	2985.00
557.00	3687.00
558.00	4604.00
559.00	5588.00
560.00	7095.00
561.00	9010.00
562.00	11444.00
563.00	14014.00
564.00	16727.00
565.00	19405.00
566.00	22293.00
567.00	24566.00
568.00	26313.00
569.00	27115.00
570.00	27638.00
571.00	27293.00
572.00	25732.00
573.00	24156.00
574.00	21344.00
575.00	18764.00
576.00	15534.00
577.00	12604.00
578.00	10236.00
579.00	8186.00
580.00	6678.00
581.00	5191.00
582.00	4218.00
583.00	3488.00
584.00	2911.00
585.00	2567.00
586.00	2462.00
587.00	2309.00
588.00	2395.00
589.00	2386.00
590.00	2408.00
591.00	2536.00
592.00	2635.00
593.00	2768.00
594.00	2884.00
595.00	3118.00
596.00	3573.00
597.00	3916.00
598.00	4598.00
599.00	5618.00
600.00	7102.00
601.00	9571.00
602.00	13243.00
603.00	18500.00
604.00	26318.00
605.00	37928.00
606.00	52434.00
607.00	73922.00
608.00	99856.00
609.00	133351.00
610.00	172814.00
611.00	218978.00
612.00	268008.00
613.00	319637.00
614.00	370048.00
615.00	417050.00
616.00	454386.00
617.00	482829.00
618.00	493231.00
619.00	494020.00
620.00	477478.00
621.00	448261.00
622.00	407682.00
623.00	360671.00
624.00	310008.00
625.00	257146.00
626.00	209072.00
627.00	164874.00
628.00	126327.00
629.00	94638.00
630.00	69061.00
631.00	49419.00
632.00	34762.00
633.00	24405.00
634.00	17249.00
635.00	12164.00
636.00	9085.00
637.00	7038.00
638.00	5416.00
639.00	4591.00
640.00	4197.00
641.00	3792.00
642.00	3603.00
643.00	3460.00
644.00	3384.00
645.00	3467.00
646.00	3374.00
647.00	3416.00
648.00	3605.00
649.00	3561.00
650.00	3589.00
651.00	3728.00
652.00	3767.00
653.00	3870.00
654.00	3979.00
655.00	4095.00
656.00	4130.00
657.00	4338.00
658.00	4391.00
659.00	4600.00
660.00	4788.00
661.00	5103.00
662.00	5457.00
663.00	5888.00
664.00	6530.00
665.00	7408.00
666.00	8407.00
667.00	9842.00
668.00	11872.00
669.00	14486.00
670.00	17811.00
671.00	22264.00
672.00	27353.00
673.00	32864.00
674.00	39285.00
675.00	46938.00
676.00	53714.00
677.00	60889.00
678.00	67235.00
679.00	72433.00
680.00	76661.00
681.00	78120.00
682.00	78460.00
683.00	75745.00
684.00	72767.00
685.00	66943.00
686.00	59856.00
687.00	53092.00
688.00	45271.00
689.00	37730.00
690.00	31240.00
691.00	24748.00
692.00	19719.00
693.00	15177.00
694.00	11659.00
695.00	9065.00
696.00	7083.00
697.00	5635.00
698.00	4644.00
699.00	4146.00
700.00	3700.00
701.00	3350.00
702.00	3156.00
703.00	3178.00
704.00	3262.00
705.00	3120.00
706.00	3230.00
707.00	3247.00
708.00	3308.00
709.00	3351.00
710.00	3505.00
711.00	3688.00
712.00	3775.00
713.00	4004.00
714.00	4293.00
715.00	4344.00
716.00	4504.00
717.00	4717.00
718.00	4942.00
719.00	4992.00
720.00	5090.00
721.00	5259.00
722.00	5200.00
723.00	5268.00
724.00	5281.00
725.00	5167.00
726.00	4930.00
727.00	4555.00
728.00	4359.00
729.00	4122.00
730.00	3925.00
731.00	3868.00
732.00	3571.00
733.00	3444.00
734.00	3405.00
735.00	3272.00
736.00	3294.00
737.00	3136.00
738.00	3163.00
739.00	3075.00
740.00	3107.00
741.00	2954.00
742.00	2946.00
743.00	2956.00
744.00	2972.00
745.00	2963.00
746.00	2985.00
747.00	3039.00
748.00	3071.00
749.00	3060.00
750.00	3019.00
751.00	2919.00
752.00	2956.00
753.00	2923.00
754.00	2954.00
755.00	2953.00
756.00	3093.00
757.00	3168.00
758.00	3187.00
759.00	3226.00
760.00	3328.00
761.00	3480.00
762.00	3451.00
763.00	3584.00
764.00	3649.00
765.00	3835.00
766.00	3810.00
767.00	3979.00
768.00	4200.00
769.00	4321.00
770.00	4601.00
771.00	4631.00
772.00	4838.00
773.00	4968.00
774.00	5162.00
775.00	5134.00
776.00	5341.00
777.00	5407.00
778.00	5431.00
779.00	5397.00
780.00	5401.00
781.00	5534.00
782.00	5303.00
783.00	5219.00
784.00	5417.00
785.00	5153.00
786.00	5274.00
787.00	5159.00
788.00	5148.00
789.00	5238.00
790.00	5154.00
791.00	5211.00
792.00	5231.00
793.00	5413.00
794.00	5341.00
795.00	5163.00
796.00	5291.00
797.00	5282.00
798.00	5373.00
799.00	5290.00
800.00	5343.00
801.00	5306.00
802.00	5373.00
803.00	5253.00
804.00	5321.00
805.00	5420.00
806.00	5398.00
807.00	5480.00
808.00	5356.00
809.00	5411.00
810.00	5329.00
811.00	5433.00
812.00	5372.00
813.00	5408.00
814.00	5327.00
815.00	5483.00
816.00	5369.00
817.00	5418.00
818.00	5438.00
819.00	5624.00
820.00	5665.00
821.00	5708.00
822.00	5992.00
823.00	6337.00
824.00	6599.00
825.00	7024.00
826.00	7145.00
827.00	7522.00
828.00	7882.00
829.00	8309.00
830.00	8411.00
831.00	8941.00
832.00	9109.00
833.00	9125.00
834.00	8996.00
835.00	8867.00
836.00	8628.00
837.00	8434.00
838.00	8228.00
839.00	7787.00
840.00	7232.00
841.00	6997.00
842.00	6687.00
843.00	6433.00
844.00	6078.00
845.00	5939.00
846.00	5731.00
847.00	5597.00
848.00	5528.00
849.00	5224.00
850.00	5132.00
851.00	5311.00
852.00	5203.00
853.00	5254.00
854.00	5353.00
855.00	5310.00
856.00	5272.00
857.00	5356.00
858.00	5408.00
859.00	5435.00
860.00	5359.00
861.00	5442.00
862.00	5421.00
863.00	5303.00
864.00	5398.00
865.00	5319.00
866.00	5408.00
867.00	5429.00
868.00	5389.00
869.00	5501.00
870.00	5513.00
871.00	5342.00
872.00	5418.00
873.00	5439.00
874.00	5564.00
875.00	5550.00
876.00	5586.00
877.00	5664.00
878.00	5655.00
879.00	5632.00
880.00	5782.00
881.00	5760.00
882.00	5926.00
883.00	5908.00
884.00	6062.00
885.00	6001.00
886.00	6297.00
887.00	6331.00
888.00	6303.00
889.00	6378.00
890.00	6379.00
891.00	6527.00
892.00	6485.00
893.00	6492.00
894.00	6571.00
895.00	6504.00
896.00	6451.00
897.00	6674.00
898.00	6582.00
899.00	6530.00
900.00	6493.00
901.00	6337.00
902.00	6480.00
903.00	6535.00
904.00	6627.00
905.00	6547.00
906.00	6383.00
907.00	6578.00
908.00	6547.00
909.00	6706.00
910.00	6554.00
911.00	6566.00
912.00	6649.00
913.00	6586.00
914.00	6817.00
915.00	6624.00
916.00	6862.00
917.00	6898.00
918.00	6949.00
919.00	6942.00
920.00	7140.00
921.00	7193.00
922.00	7106.00
923.00	7169.00
924.00	7210.00
925.00	7274.00
926.00	7107.00
927.00	7211.00
928.00	7253.00
929.00	7121.00
930.00	7130.00
931.00	7211.00
932.00	6990.00
933.00	7128.00
934.00	6966.00
935.00	6821.00
936.00	6806.00
937.00	6687.00
938.00	7057.00
939.00	6686.00
940.00	6799.00
941.00	6617.00
942.00	6536.00
943.00	6773.00
944.00	6656.00
945.00	6787.00
946.00	6647.00
947.00	6484.00
948.00	6518.00
949.00	6599.00
950.00	6610.00
951.00	6555.00
952.00	6420.00
953.00	6700.00
954.00	6513.00
955.00	6602.00
956.00	6595.00
957.00	6542.00
958.00	6661.00
959.00	6528.00
960.00	6500.00
961.00	6581.00
962.00	6657.00
963.00	6796.00
964.00	6660.00
965.00	6648.00
966.00	6653.00
967.00	6662.00
968.00	6658.00
969.00	6662.00
970.00	6629.00
971.00	6788.00
972.00	6705.00
973.00	6595.00
974.00	6901.00
975.00	6744.00
976.00	6704.00
977.00	6711.00
978.00	6724.00
979.00	6707.00
980.00	6699.00
981.00	6619.00
982.00	6746.00
983.00	6670.00
984.00	6743.00
985.00	6646.00
986.00	6763.00
987.00	6768.00
988.00	6917.00
989.00	6796.00
990.00	6734.00
991.00	6825.00
992.00	6933.00
993.00	6924.00
994.00	6805.00
995.00	6748.00
996.00	6735.00
997.00	6887.00
998.00	6719.00
999.00	6909.00
1000.00	6792.00
1001.00	6714.00
1002.00	6560.00
1003.00	6863.00
1004.00	7142.00
1005.00	6905.00
1006.00	6908.00
1007.00	7017.00
1008.00	6991.00
1009.00	7179.00
1010.00	7042.00
1011.00	7327.00
1012.00	7354.00
1013.00	7297.00
1014.00	7399.00
1015.00	7436.00
1016.00	7301.00
1017.00	7435.00
1018.00	7557.00
1019.00	7379.00
1020.00	7370.00
1021.00	7377.00
1022.00	7157.00
1023.00	7238.00
1024.00	7193.00
1025.00	7101.00
1026.00	7152.00
1027.00	6885.00
1028.00	6856.00
1029.00	6659.00
1030.00	6709.00
1031.00	6778.00
1032.00	6831.00
1033.00	6732.00
1034.00	6726.00
1035.00	6716.00
1036.00	6675.00
1037.00	6901.00
1038.00	6604.00
1039.00	6696.00
1040.00	6820.00
1041.00	6842.00
1042.00	6857.00
1043.00	6982.00
1044.00	6796.00
1045.00	6856.00
1046.00	7025.00
1047.00	6882.00
1048.00	6927.00
1049.00	6979.00
1050.00	7054.00
1051.00	6983.00
1052.00	7078.00
1053.00	6953.00
1054.00	6916.00
1055.00	7002.00
1056.00	6912.00
1057.00	6959.00
1058.00	6968.00
1059.00	6987.00
1060.00	7018.00
1061.00	7000.00
1062.00	7067.00
1063.00	7032.00
1064.00	7185.00
1065.00	6943.00
1066.00	6984.00
1067.00	7030.00
1068.00	6910.00
1069.00	7026.00
1070.00	6833.00
1071.00	7101.00
1072.00	7235.00
1073.00	6956.00
1074.00	7192.00
1075.00	7046.00
1076.00	7059.00
1077.00	7039.00
1078.00	7026.00
1079.00	7025.00
1080.00	7110.00
1081.00	7119.00
1082.00	7218.00
1083.00	7318.00
1084.00	7113.00
1085.00	7361.00
1086.00	7278.00
1087.00	7122.00
1088.00	7389.00
1089.00	7274.00
1090.00	7378.00
1091.00	7439.00
1092.00	7307.00
1093.00	7389.00
1094.00	7290.00
1095.00	7345.00
1096.00	7157.00
1097.00	7456.00
1098.00	7345.00
1099.00	7108.00
1100.00	7424.00
1101.00	7182.00
1102.00	7231.00
1103.00	7278.00
1104.00	7314.00
1105.00	7202.00
1106.00	7230.00
1107.00	7324.00
1108.00	7399.00
1109.00	7314.00
1110.00	7311.00
1111.00	7155.00
1112.00	7272.00
1113.00	7213.00
1114.00	7324.00
1115.00	7225.00
1116.00	7355.00
1117.00	7222.00
1118.00	7290.00
1119.00	7157.00
1120.00	7444.00
1121.00	7269.00
1122.00	7391.00
1123.00	7316.00
1124.00	7380.00
1125.00	7155.00
1126.00	7270.00
1127.00	7464.00
1128.00	7275.00
1129.00	7180.00
1130.00	7094.00
1131.00	7316.00
1132.00	7381.00
1133.00	7128.00
1134.00	7375.00
1135.00	7174.00
1136.00	7436.00
1137.00	7297.00
1138.00	7425.00
1139.00	7281.00
1140.00	7269.00
1141.00	7207.00
1142.00	7249.00
1143.00	7282.00
1144.00	7224.00
1145.00	7295.00
1146.00	7359.00
1147.00	7161.00
1148.00	7231.00
1149.00	7109.00
1150.00	7216.00
1151.00	7157.00
1152.00	7212.00
1153.00	7110.00
1154.00	7166.00
1155.00	7181.00
1156.00	7252.00
1157.00	7364.00
1158.00	7310.00
1159.00	7331.00
1160.00	7133.00
1161.00	7152.00
1162.00	7135.00
1163.00	7033.00
1164.00	6979.00
1165.00	7111.00
1166.00	7051.00
1167.00	7062.00
1168.00	7095.00
1169.00	7203.00
1170.00	7188.00
1171.00	6981.00
1172.00	7041.00
1173.00	7208.00
1174.00	7107.00
1175.00	7099.00
1176.00	7095.00
1177.00	7356.00
1178.00	7138.00
1179.00	7321.00
1180.00	7282.00
1181.00	7189.00
1182.00	7286.00
1183.00	7110.00
1184.00	7242.00
1185.00	7170.00
1186.00	7065.00
1187.00	7282.00
1188.00	7164.00
1189.00	7571.00
1190.00	7260.00
1191.00	7286.00
1192.00	7275.00
1193.00	7121.00
1194.00	7327.00
1195.00	7245.00
1196.00	7244.00
1197.00	7168.00
1198.00	7206.00
1199.00	7266.00
1200.00	7322.00
1201.00	7318.00
1202.00	7415.00
1203.00	7403.00
1204.00	7411.00
1205.00	7390.00
1206.00	7271.00
1207.00	7527.00
1208.00	7549.00
1209.00	7352.00
1210.00	7348.00
1211.00	7519.00
1212.00	7582.00
1213.00	7683.00
1214.00	7604.00
1215.00	7808.00
1216.00	7718.00
1217.00	7846.00
1218.00	7713.00
1219.00	7694.00
1220.00	7904.00
1221.00	7793.00
1222.00	7974.00
1223.00	7930.00
1224.00	8055.00
1225.00	7917.00
1226.00	8011.00
1227.00	8033.00
1228.00	8155.00
1229.00	8254.00
1230.00	8265.00
1231.00	8247.00
1232.00	8363.00
1233.00	8227.00
1234.00	8238.00
1235.00	8246.00
1236.00	8049.00
1237.00	8314.00
1238.00	8298.00
1239.00	8141.00
1240.00	8186.00
1241.00	7953.00
1242.00	7944.00
1243.00	7793.00
1244.00	7904.00
1245.00	7833.00
1246.00	7626.00
1247.00	7565.00
1248.00	7577.00
1249.00	7432.00
1250.00	7441.00
1251.00	7410.00
1252.00	7419.00
1253.00	7306.00
1254.00	7416.00
1255.00	7303.00
1256.00	7327.00
1257.00	7458.00
1258.00	7341.00
1259.00	7368.00
1260.00	7413.00
1261.00	7271.00
1262.00	7466.00
1263.00	7312.00
1264.00	7282.00
1265.00	7370.00
1266.00	7461.00
1267.00	7338.00
1268.00	7370.00
1269.00	7465.00
1270.00	7620.00
1271.00	7505.00
1272.00	7454.00
1273.00	7533.00
1274.00	7507.00
1275.00	7716.00
1276.00	7646.00
1277.00	7726.00
1278.00	7784.00
1279.00	7908.00
1280.00	8020.00
1281.00	8278.00
1282.00	8307.00
1283.00	8558.00
1284.00	8414.00
1285.00	8480.00
1286.00	8668.00
1287.00	8745.00
1288.00	8882.00
1289.00	8924.00
1290.00	9123.00
1291.00	8960.00
1292.00	8932.00
1293.00	8989.00
1294.00	8813.00
1295.00	8875.00
1296.00	8689.00
1297.00	8855.00
1298.00	8544.00
1299.00	8517.00
1300.00	8260.00
1301.00	8123.00
1302.00	8047.00
1303.00	7896.00
1304.00	7795.00
1305.00	7689.00
1306.00	7668.00
1307.00	7683.00
1308.00	7364.00
1309.00	7360.00
1310.00	7417.00
1311.00	7365.00
1312.00	7108.00
1313.00	7243.00
1314.00	7452.00
1315.00	7245.00
1316.00	7171.00
1317.00	7198.00
1318.00	7096.00
1319.00	7202.00
1320.00	7113.00
1321.00	7080.00
1322.00	7172.00
1323.00	7095.00
1324.00	7084.00
1325.00	6907.00
1326.00	7027.00
1327.00	7062.00
1328.00	6925.00
1329.00	7131.00
1330.00	7075.00
1331.00	7073.00
1332.00	7049.00
1333.00	6938.00
1334.00	6743.00
1335.00	6941.00
1336.00	6964.00
1337.00	6896.00
1338.00	6938.00
1339.00	6791.00
1340.00	6970.00
1341.00	6944.00
1342.00	7067.00
1343.00	6947.00
1344.00	7035.00
1345.00	6977.00
1346.00	7079.00
1347.00	7159.00
1348.00	7103.00
1349.00	7122.00
1350.00	7318.00
1351.00	7290.00
1352.00	7362.00
1353.00	7412.00
1354.00	7453.00
1355.00	7620.00
1356.00	7737.00
1357.00	7708.00
1358.00	7784.00
1359.00	7781.00
1360.00	7932.00
1361.00	7967.00
1362.00	7966.00
1363.00	8022.00
1364.00	8064.00
1365.00	8009.00
1366.00	7984.00
1367.00	7904.00
1368.00	7934.00
1369.00	7857.00
1370.00	7503.00
1371.00	7707.00
1372.00	7558.00
1373.00	7411.00
1374.00	7340.00
1375.00	7061.00
1376.00	6861.00
1377.00	6868.00
1378.00	6854.00
1379.00	6864.00
1380.00	6636.00
1381.00	6645.00
1382.00	6631.00
1383.00	6529.00
1384.00	6538.00
1385.00	6419.00
1386.00	6536.00
1387.00	6482.00
1388.00	6306.00
1389.00	6289.00
1390.00	6364.00
1391.00	6394.00
1392.00	6410.00
1393.00	6319.00
1394.00	6423.00
1395.00	6391.00
1396.00	6419.00
1397.00	6437.00
1398.00	6241.00
1399.00	6360.00
1400.00	6149.00
1401.00	6290.00
1402.00	6318.00
1403.00	6058.00
1404.00	6270.00
1405.00	6201.00
1406.00	6164.00
1407.00	6271.00
1408.00	6206.00
1409.00	6229.00
1410.00	6147.00
1411.00	6081.00
1412.00	6246.00
1413.00	6151.00
1414.00	6139.00
1415.00	6163.00
1416.00	6273.00
1417.00	6277.00
1418.00	6312.00
1419.00	6269.00
1420.00	6082.00
1421.00	6227.00
1422.00	6254.00
1423.00	6248.00
1424.00	6247.00
1425.00	6375.00
1426.00	6350.00
1427.00	6375.00
1428.00	6292.00
1429.00	6450.00
1430.00	6330.00
1431.00	6471.00
1432.00	6317.00
1433.00	6522.00
1434.00	6596.00
1435.00	6514.00
1436.00	6553.00
1437.00	6640.00
1438.00	6759.00
1439.00	6642.00
1440.00	6769.00
1441.00	6600.00
1442.00	6701.00
1443.00	6756.00
1444.00	6680.00
1445.00	6682.00
1446.00	6513.00
1447.00	6577.00
1448.00	6519.00
1449.00	6403.00
1450.00	6283.00
1451.00	6327.00
1452.00	6296.00
1453.00	6091.00
1454.00	6321.00
1455.00	6229.00
1456.00	5966.00
1457.00	6140.00
1458.00	6149.00
1459.00	6050.00
1460.00	5986.00
1461.00	6014.00
1462.00	5993.00
1463.00	6062.00
1464.00	5770.00
1465.00	5944.00
1466.00	5962.00
1467.00	5953.00
1468.00	5947.00
1469.00	5934.00
1470.00	5978.00
1471.00	5996.00
1472.00	6060.00
1473.00	5903.00
1474.00	5939.00
1475.00	5820.00
1476.00	5878.00
1477.00	5910.00
1478.00	5827.00
1479.00	5783.00
1480.00	5856.00
1481.00	5889.00
1482.00	5962.00
1483.00	5843.00
1484.00	6099.00
1485.00	5945.00
1486.00	5772.00
1487.00	5756.00
1488.00	5836.00
1489.00	5861.00
1490.00	5919.00
1491.00	5923.00
1492.00	5715.00
1493.00	5966.00
1494.00	5914.00
1495.00	6000.00
1496.00	5944.00
1497.00	5926.00
1498.00	5960.00
1499.00	5942.00
1500.00	5997.00
1501.00	6048.00
1502.00	6024.00
1503.00	6235.00
1504.00	6151.00
1505.00	6265.00
1506.00	6377.00
1507.00	6420.00
1508.00	6419.00
1509.00	6550.00
1510.00	6550.00
1511.00	6713.00
1512.00	6832.00
1513.00	6989.00
1514.00	6918.00
1515.00	7053.00
1516.00	6984.00
1517.00	7061.00
1518.00	7115.00
1519.00	7192.00
1520.00	7271.00
1521.00	6944.00
1522.00	7240.00
1523.00	7041.00
1524.00	7167.00
1525.00	6994.00
1526.00	6924.00
1527.00	6750.00
1528.00	6933.00
1529.00	6824.00
1530.00	6831.00
1531.00	6699.00
1532.00	6592.00
1533.00	6475.00
1534.00	6519.00
1535.00	6506.00
1536.00	6581.00
1537.00	6490.00
1538.00	6531.00
1539.00	6341.00
1540.00	6467.00
1541.00	6354.00
1542.00	6477.00
1543.00	6517.00
1544.00	6716.00
1545.00	6515.00
1546.00	6654.00
1547.00	6630.00
1548.00	6729.00
1549.00	6723.00
1550.00	6743.00
1551.00	6885.00
1552.00	7012.00
1553.00	6879.00
1554.00	7071.00
1555.00	7276.00
1556.00	7093.00
1557.00	7324.00
1558.00	7371.00
1559.00	7408.00
1560.00	7616.00
1561.00	7741.00
1562.00	7844.00
1563.00	8065.00
1564.00	8081.00
1565.00	8029.00
1566.00	8343.00
1567.00	8585.00
1568.00	8678.00
1569.00	8743.00
1570.00	8854.00
1571.00	8865.00
1572.00	8975.00
1573.00	9229.00
1574.00	9242.00
1575.00	9526.00
1576.00	9555.00
1577.00	9525.00
1578.00	9616.00
1579.00	10005.00
1580.00	10137.00
1581.00	10227.00
1582.00	9935.00
1583.00	10060.00
1584.00	10199.00
1585.00	10167.00
1586.00	10506.00
1587.00	10287.00
1588.00	10375.00
1589.00	10356.00
1590.00	10206.00
1591.00	10449.00
1592.00	10234.00
1593.00	10185.00
1594.00	10260.00
1595.00	10039.00
1596.00	10109.00
1597.00	10014.00
1598.00	9954.00
1599.00	9895.00
1600.00	9632.00
1601.00	9636.00
1602.00	9531.00
1603.00	9386.00
1604.00	9178.00
1605.00	9182.00
1606.00	8959.00
1607.00	8931.00
1608.00	8614.00
1609.00	8451.00
1610.00	8322.00
1611.00	8264.00
1612.00	8074.00
1613.00	7908.00
1614.00	7948.00
1615.00	7786.00
1616.00	7689.00
1617.00	7464.00
1618.00	7390.00
1619.00	7129.00
1620.00	6993.00
1621.00	6838.00
1622.00	6819.00
1623.00	6710.00
1624.00	6585.00
1625.00	6386.00
1626.00	6391.00
1627.00	6226.00
1628.00	6110.00
1629.00	6159.00
1630.00	6009.00
1631.00	5855.00
1632.00	5915.00
1633.00	5646.00
1634.00	5701.00
1635.00	5597.00
1636.00	5543.00
1637.00	5363.00
1638.00	5489.00
1639.00	5249.00
1640.00	5253.00
1641.00	5166.00
1642.00	5184.00
1643.00	5101.00
1644.00	5118.00
1645.00	5177.00
1646.00	5161.00
1647.00	4919.00
1648.00	5008.00
1649.00	4887.00
1650.00	4918.00
1651.00	4875.00
1652.00	4864.00
1653.00	4883.00
1654.00	4922.00
1655.00	4875.00
1656.00	5031.00
1657.00	5003.00
1658.00	4910.00
1659.00	4940.00
1660.00	5118.00
1661.00	5318.00
1662.00	5376.00
1663.00	5434.00
1664.00	5472.00
1665.00	5787.00
1666.00	5804.00
1667.00	5988.00
1668.00	6383.00
1669.00	6637.00
1670.00	6675.00
1671.00	6868.00
1672.00	7295.00
1673.00	7544.00
1674.00	7855.00
1675.00	8178.00
1676.00	7969.00
1677.00	8320.00
1678.00	8477.00
1679.00	8894.00
1680.00	8787.00
1681.00	8842.00
1682.00	8992.00
1683.00	8904.00
1684.00	8924.00
1685.00	8590.00
1686.00	8535.00
1687.00	8449.00
1688.00	8267.00
1689.00	7800.00
1690.00	7729.00
1691.00	7384.00
1692.00	6881.00
1693.00	6740.00
1694.00	6621.00
1695.00	6330.00
1696.00	6008.00
1697.00	5773.00
1698.00	5382.00
1699.00	5230.00
1700.00	4947.00
1701.00	4848.00
1702.00	4668.00
1703.00	4456.00
1704.00	4366.00
1705.00	4265.00
1706.00	4248.00
1707.00	4196.00
1708.00	4135.00
1709.00	4071.00
1710.00	3955.00
1711.00	3995.00
1712.00	3958.00
1713.00	3917.00
1714.00	3921.00
1715.00	3776.00
1716.00	3751.00
1717.00	3880.00
1718.00	3806.00
1719.00	3795.00
1720.00	3815.00
1721.00	3762.00
1722.00	3775.00
1723.00	3750.00
1724.00	3750.00
1725.00	3800.00
1726.00	3768.00
1727.00	3839.00
1728.00	3721.00
1729.00	3685.00
1730.00	3760.00
1731.00	3737.00
1732.00	3830.00
1733.00	3736.00
1734.00	3765.00
1735.00	3841.00
1736.00	3755.00
1737.00	3603.00
1738.00	3728.00
1739.00	3638.00
1740.00	3819.00
1741.00	3704.00
1742.00	3855.00
1743.00	3799.00
1744.00	3775.00
1745.00	3795.00
1746.00	3725.00
1747.00	3750.00
1748.00	3754.00
1749.00	3778.00
1750.00	3883.00
1751.00	3832.00
1752.00	3859.00
1753.00	3897.00
1754.00	3782.00
1755.00	3863.00
1756.00	3874.00
1757.00	3885.00
1758.00	3888.00
1759.00	3875.00
1760.00	4007.00
1761.00	3955.00
1762.00	3956.00
1763.00	3953.00
1764.00	3867.00
1765.00	3984.00
1766.00	3944.00
1767.00	3918.00
1768.00	4059.00
1769.00	3843.00
1770.00	3972.00
1771.00	3935.00
1772.00	3979.00
1773.00	3905.00
1774.00	3912.00
1775.00	3876.00
1776.00	3750.00
1777.00	3800.00
1778.00	3738.00
1779.00	3806.00
1780.00	3802.00
1781.00	3785.00
1782.00	3690.00
1783.00	3674.00
1784.00	3677.00
1785.00	3676.00
1786.00	3553.00
1787.00	3661.00
1788.00	3762.00
1789.00	3526.00
1790.00	3632.00
1791.00	3523.00
1792.00	3528.00
1793.00	3533.00
1794.00	3465.00
1795.00	3469.00
1796.00	3374.00
1797.00	3382.00
1798.00	3318.00
1799.00	3275.00
1800.00	3173.00
1801.00	3176.00
1802.00	3220.00
1803.00	3176.00
1804.00	3014.00
1805.00	3116.00
1806.00	2960.00
1807.00	3015.00
1808.00	2987.00
1809.00	2994.00
1810.00	2966.00
1811.00	2804.00
1812.00	2862.00
1813.00	2783.00
1814.00	2843.00
1815.00	2832.00
1816.00	2631.00
1817.00	2718.00
1818.00	2718.00
1819.00	2585.00
1820.00	2544.00
1821.00	2640.00
1822.00	2635.00
1823.00	2453.00
1824.00	2611.00
1825.00	2497.00
1826.00	2484.00
1827.00	2478.00
1828.00	2324.00
1829.00	2470.00
1830.00	2424.00
1831.00	2426.00
1832.00	2466.00
1833.00	2324.00
1834.00	2273.00
1835.00	2256.00
1836.00	2341.00
1837.00	2234.00
1838.00	2226.00
1839.00	2282.00
1840.00	2219.00
1841.00	2204.00
1842.00	2128.00
1843.00	2164.00
1844.00	2216.00
1845.00	2125.00
1846.00	2105.00
1847.00	2160.00
1848.00	2122.00
1849.00	2038.00
1850.00	2073.00
1851.00	2076.00
1852.00	1976.00
1853.00	1996.00
1854.00	2038.00
1855.00	1949.00
1856.00	1980.00
1857.00	1986.00
1858.00	2029.00
1859.00	1937.00
1860.00	1905.00
1861.00	2039.00
1862.00	1989.00
1863.00	2017.00
1864.00	1945.00
1865.00	1983.00
1866.00	1900.00
1867.00	1900.00
1868.00	1970.00
1869.00	1984.00
1870.00	1955.00
1871.00	1879.00
1872.00	1947.00
1873.00	1999.00
1874.00	2008.00
1875.00	2087.00
1876.00	2011.00
1877.00	2064.00
1878.00	2061.00
1879.00	2098.00
1880.00	2247.00
1881.00	2116.00
1882.00	2200.00
1883.00	2266.00
1884.00	2279.00
1885.00	2350.00
1886.00	2341.00
1887.00	2293.00
1888.00	2386.00
1889.00	2455.00
1890.00	2409.00
1891.00	2330.00
1892.00	2229.00
1893.00	2283.00
1894.00	2280.00
1895.00	2148.00
1896.00	2210.00
1897.00	2118.00
1898.00	2012.00
1899.00	2100.00
1900.00	2029.00
1901.00	1929.00
1902.00	1911.00
1903.00	1891.00
1904.00	1792.00
1905.00	1741.00
1906.00	1788.00
1907.00	1704.00
1908.00	1692.00
1909.00	1727.00
1910.00	1707.00
1911.00	1611.00
1912.00	1626.00
1913.00	1661.00
1914.00	1598.00
1915.00	1616.00
1916.00	1632.00
1917.00	1581.00
1918.00	1581.00
1919.00	1537.00
1920.00	1541.00
1921.00	1436.00
1922.00	1554.00
1923.00	1528.00
1924.00	1485.00
1925.00	1565.00
1926.00	1464.00
1927.00	1454.00
1928.00	1465.00
1929.00	1462.00
1930.00	1437.00
1931.00	1504.00
1932.00	1437.00
1933.00	1476.00
1934.00	1384.00
1935.00	1371.00
1936.00	1352.00
1937.00	1373.00
1938.00	1324.00
1939.00	1290.00
1940.00	1407.00
1941.00	1235.00
1942.00	1308.00
1943.00	1289.00
1944.00	1299.00
1945.00	1299.00
1946.00	1246.00
1947.00	1240.00
1948.00	1251.00
1949.00	1364.00
1950.00	1184.00
1951.00	1250.00
1952.00	1216.00
1953.00	1270.00
1954.00	1215.00
1955.00	1233.00
1956.00	1198.00
1957.00	1180.00
1958.00	1191.00
1959.00	1210.00
1960.00	1148.00
1961.00	1147.00
1962.00	1141.00
1963.00	1199.00
1964.00	1201.00
1965.00	1144.00
1966.00	1201.00
1967.00	1110.00
1968.00	1187.00
1969.00	1127.00
1970.00	1119.00
1971.00	1094.00
1972.00	1106.00
1973.00	1124.00
1974.00	1170.00
1975.00	1108.00
1976.00	1136.00
1977.00	1099.00
1978.00	1118.00
1979.00	1072.00
1980.00	1086.00
1981.00	1072.00
1982.00	1039.00
1983.00	1083.00
1984.00	1104.00
1985.00	1110.00
1986.00	1023.00
1987.00	1020.00
1988.00	1094.00
1989.00	1061.00
1990.00	1012.00
1991.00	1082.00
1992.00	982.00
1993.00	1035.00
1994.00	1015.00
1995.00	1075.00
1996.00	989.00
1997.00	978.00
1998.00	997.00
1999.00	990.00
2000.00	981.00
2001.00	982.00
2002.00	960.00
2003.00	987.00
2004.00	932.00
2005.00	916.00
2006.00	969.00
2007.00	935.00
2008.00	919.00
2009.00	896.00
2010.00	910.00
2011.00	917.00
2012.00	980.00
2013.00	941.00
2014.00	930.00
2015.00	900.00
2016.00	901.00
2017.00	851.00
2018.00	796.00
2019.00	877.00
2020.00	897.00
2021.00	833.00
2022.00	876.00
2023.00	752.00
2024.00	843.00
2025.00	826.00
2026.00	859.00
2027.00	878.00
2028.00	842.00
2029.00	836.00
2030.00	859.00
2031.00	773.00
2032.00	767.00
2033.00	835.00
2034.00	798.00
2035.00	778.00
2036.00	749.00
2037.00	782.00
2038.00	753.00
2039.00	785.00
2040.00	727.00
2041.00	760.00
2042.00	724.00
2043.00	734.00
2044.00	754.00
2045.00	715.00
2046.00	701.00
2047.00	755.00
2048.00	 0.00
