Date:	2023-09-18		
Time:	21:26		
Sample name:	Pellets		
Position:	1285.600011	mm	
Sample surface:	5.935117	cm	
Tube anode:	Mo		
Tube voltage:	30	kV	
Tube current:	50	mA	
Comments	not in position		
Gain	5.810000		
peaking_time	0.300000	m-sec	
trigger_threshold	30.000000	V	
mca_bin_width	2.000000	no:	
number_mca_channels	2048.000000	no:	
gap_time	0.100000	m-sec	
trigger_peaking_time	0.050000	m-sec	
livetime	17.169765	seconds	
runtime	20.000119	seconds	
input_count_rate	127458.530433	cps	
output_count_rate	109420.998945	cps	
triggers	2454486.000000	seconds	
events_in_run	2178761.000000	seconds	
channel	content		
 1.00	 0.00
 2.00	 0.00
 3.00	 0.00
 4.00	 0.00
 5.00	 0.00
 6.00	 0.00
 7.00	 0.00
 8.00	 0.00
 9.00	 0.00
10.00	 0.00
11.00	 0.00
12.00	 0.00
13.00	 0.00
14.00	 0.00
15.00	 0.00
16.00	 0.00
17.00	 0.00
18.00	 0.00
19.00	 0.00
20.00	 0.00
21.00	 0.00
22.00	 0.00
23.00	 0.00
24.00	 0.00
25.00	 0.00
26.00	 0.00
27.00	 0.00
28.00	 0.00
29.00	 0.00
30.00	 0.00
31.00	 1.00
32.00	 1.00
33.00	 2.00
34.00	 3.00
35.00	 4.00
36.00	11.00
37.00	11.00
38.00	22.00
39.00	27.00
40.00	31.00
41.00	54.00
42.00	67.00
43.00	82.00
44.00	98.00
45.00	103.00
46.00	126.00
47.00	132.00
48.00	171.00
49.00	191.00
50.00	196.00
51.00	215.00
52.00	231.00
53.00	234.00
54.00	234.00
55.00	310.00
56.00	301.00
57.00	307.00
58.00	331.00
59.00	338.00
60.00	294.00
61.00	323.00
62.00	295.00
63.00	368.00
64.00	298.00
65.00	311.00
66.00	323.00
67.00	343.00
68.00	367.00
69.00	359.00
70.00	335.00
71.00	338.00
72.00	346.00
73.00	328.00
74.00	345.00
75.00	335.00
76.00	348.00
77.00	323.00
78.00	315.00
79.00	321.00
80.00	314.00
81.00	294.00
82.00	345.00
83.00	333.00
84.00	355.00
85.00	328.00
86.00	317.00
87.00	310.00
88.00	290.00
89.00	286.00
90.00	340.00
91.00	337.00
92.00	307.00
93.00	319.00
94.00	281.00
95.00	299.00
96.00	267.00
97.00	285.00
98.00	326.00
99.00	258.00
100.00	285.00
101.00	261.00
102.00	289.00
103.00	244.00
104.00	252.00
105.00	255.00
106.00	248.00
107.00	258.00
108.00	264.00
109.00	272.00
110.00	245.00
111.00	226.00
112.00	241.00
113.00	228.00
114.00	256.00
115.00	280.00
116.00	259.00
117.00	259.00
118.00	254.00
119.00	254.00
120.00	254.00
121.00	253.00
122.00	227.00
123.00	244.00
124.00	238.00
125.00	222.00
126.00	209.00
127.00	215.00
128.00	194.00
129.00	167.00
130.00	218.00
131.00	199.00
132.00	196.00
133.00	198.00
134.00	212.00
135.00	218.00
136.00	258.00
137.00	316.00
138.00	331.00
139.00	542.00
140.00	628.00
141.00	866.00
142.00	1009.00
143.00	1211.00
144.00	1291.00
145.00	1300.00
146.00	1242.00
147.00	1058.00
148.00	952.00
149.00	820.00
150.00	752.00
151.00	710.00
152.00	585.00
153.00	568.00
154.00	529.00
155.00	446.00
156.00	404.00
157.00	407.00
158.00	414.00
159.00	521.00
160.00	798.00
161.00	1350.00
162.00	2189.00
163.00	3438.00
164.00	5122.00
165.00	7420.00
166.00	9531.00
167.00	11416.00
168.00	12814.00
169.00	13329.00
170.00	12851.00
171.00	11578.00
172.00	9680.00
173.00	7443.00
174.00	5627.00
175.00	4019.00
176.00	2768.00
177.00	1982.00
178.00	1419.00
179.00	1122.00
180.00	907.00
181.00	742.00
182.00	566.00
183.00	493.00
184.00	442.00
185.00	353.00
186.00	366.00
187.00	329.00
188.00	347.00
189.00	333.00
190.00	329.00
191.00	325.00
192.00	296.00
193.00	265.00
194.00	254.00
195.00	253.00
196.00	255.00
197.00	236.00
198.00	228.00
199.00	233.00
200.00	207.00
201.00	188.00
202.00	169.00
203.00	185.00
204.00	176.00
205.00	195.00
206.00	185.00
207.00	205.00
208.00	165.00
209.00	194.00
210.00	168.00
211.00	165.00
212.00	164.00
213.00	160.00
214.00	173.00
215.00	190.00
216.00	185.00
217.00	231.00
218.00	196.00
219.00	214.00
220.00	249.00
221.00	212.00
222.00	243.00
223.00	255.00
224.00	200.00
225.00	221.00
226.00	208.00
227.00	215.00
228.00	177.00
229.00	214.00
230.00	166.00
231.00	190.00
232.00	174.00
233.00	183.00
234.00	182.00
235.00	170.00
236.00	166.00
237.00	179.00
238.00	157.00
239.00	187.00
240.00	180.00
241.00	172.00
242.00	175.00
243.00	157.00
244.00	169.00
245.00	189.00
246.00	162.00
247.00	156.00
248.00	184.00
249.00	169.00
250.00	167.00
251.00	171.00
252.00	168.00
253.00	167.00
254.00	190.00
255.00	183.00
256.00	150.00
257.00	192.00
258.00	208.00
259.00	203.00
260.00	224.00
261.00	179.00
262.00	217.00
263.00	230.00
264.00	229.00
265.00	268.00
266.00	264.00
267.00	294.00
268.00	291.00
269.00	283.00
270.00	285.00
271.00	264.00
272.00	282.00
273.00	253.00
274.00	243.00
275.00	239.00
276.00	269.00
277.00	328.00
278.00	402.00
279.00	517.00
280.00	736.00
281.00	904.00
282.00	1156.00
283.00	1451.00
284.00	1742.00
285.00	1914.00
286.00	2071.00
287.00	2097.00
288.00	1984.00
289.00	1822.00
290.00	1612.00
291.00	1335.00
292.00	1060.00
293.00	834.00
294.00	647.00
295.00	457.00
296.00	338.00
297.00	295.00
298.00	238.00
299.00	243.00
300.00	223.00
301.00	225.00
302.00	298.00
303.00	335.00
304.00	331.00
305.00	398.00
306.00	456.00
307.00	557.00
308.00	767.00
309.00	958.00
310.00	1394.00
311.00	2033.00
312.00	3005.00
313.00	4375.00
314.00	6315.00
315.00	8411.00
316.00	11312.00
317.00	14234.00
318.00	17028.00
319.00	19827.00
320.00	21321.00
321.00	22164.00
322.00	21858.00
323.00	20245.00
324.00	18032.00
325.00	15140.00
326.00	12144.00
327.00	9552.00
328.00	6731.00
329.00	4781.00
330.00	3049.00
331.00	2098.00
332.00	1324.00
333.00	923.00
334.00	641.00
335.00	510.00
336.00	480.00
337.00	528.00
338.00	655.00
339.00	776.00
340.00	953.00
341.00	1350.00
342.00	1686.00
343.00	2117.00
344.00	2561.00
345.00	3142.00
346.00	3600.00
347.00	4020.00
348.00	4637.00
349.00	5098.00
350.00	5963.00
351.00	6844.00
352.00	7583.00
353.00	8909.00
354.00	9820.00
355.00	10624.00
356.00	11521.00
357.00	11818.00
358.00	11801.00
359.00	11039.00
360.00	10042.00
361.00	8736.00
362.00	7156.00
363.00	5536.00
364.00	4278.00
365.00	3185.00
366.00	2200.00
367.00	1526.00
368.00	1067.00
369.00	689.00
370.00	526.00
371.00	412.00
372.00	315.00
373.00	293.00
374.00	273.00
375.00	285.00
376.00	355.00
377.00	393.00
378.00	385.00
379.00	504.00
380.00	628.00
381.00	797.00
382.00	910.00
383.00	1106.00
384.00	1339.00
385.00	1536.00
386.00	1736.00
387.00	1809.00
388.00	2010.00
389.00	1887.00
390.00	1790.00
391.00	1804.00
392.00	1594.00
393.00	1373.00
394.00	1187.00
395.00	1010.00
396.00	842.00
397.00	733.00
398.00	574.00
399.00	538.00
400.00	477.00
401.00	414.00
402.00	403.00
403.00	350.00
404.00	367.00
405.00	333.00
406.00	358.00
407.00	340.00
408.00	310.00
409.00	318.00
410.00	312.00
411.00	338.00
412.00	309.00
413.00	350.00
414.00	340.00
415.00	402.00
416.00	355.00
417.00	412.00
418.00	410.00
419.00	443.00
420.00	512.00
421.00	604.00
422.00	823.00
423.00	1010.00
424.00	1333.00
425.00	1925.00
426.00	2484.00
427.00	3429.00
428.00	4759.00
429.00	6252.00
430.00	7956.00
431.00	9787.00
432.00	11811.00
433.00	13627.00
434.00	15354.00
435.00	16280.00
436.00	16951.00
437.00	16481.00
438.00	15867.00
439.00	14399.00
440.00	12987.00
441.00	10968.00
442.00	9185.00
443.00	7644.00
444.00	6332.00
445.00	5287.00
446.00	4527.00
447.00	4036.00
448.00	3679.00
449.00	3405.00
450.00	3268.00
451.00	2965.00
452.00	2785.00
453.00	2670.00
454.00	2333.00
455.00	2086.00
456.00	1834.00
457.00	1597.00
458.00	1400.00
459.00	1291.00
460.00	1183.00
461.00	1231.00
462.00	1250.00
463.00	1358.00
464.00	1450.00
465.00	1620.00
466.00	1794.00
467.00	1947.00
468.00	2173.00
469.00	2502.00
470.00	2771.00
471.00	3000.00
472.00	3344.00
473.00	3704.00
474.00	4071.00
475.00	4290.00
476.00	4536.00
477.00	4649.00
478.00	4540.00
479.00	4353.00
480.00	4127.00
481.00	3674.00
482.00	3199.00
483.00	2897.00
484.00	2502.00
485.00	2072.00
486.00	1790.00
487.00	1520.00
488.00	1294.00
489.00	1141.00
490.00	1023.00
491.00	899.00
492.00	909.00
493.00	888.00
494.00	1006.00
495.00	957.00
496.00	997.00
497.00	1031.00
498.00	1124.00
499.00	1177.00
500.00	1110.00
501.00	1186.00
502.00	1227.00
503.00	1277.00
504.00	1290.00
505.00	1372.00
506.00	1409.00
507.00	1475.00
508.00	1456.00
509.00	1503.00
510.00	1610.00
511.00	1653.00
512.00	1692.00
513.00	1746.00
514.00	1746.00
515.00	1900.00
516.00	1953.00
517.00	2069.00
518.00	2101.00
519.00	2280.00
520.00	2370.00
521.00	2482.00
522.00	2515.00
523.00	2578.00
524.00	2533.00
525.00	2542.00
526.00	2462.00
527.00	2330.00
528.00	2234.00
529.00	2071.00
530.00	1931.00
531.00	1853.00
532.00	1835.00
533.00	1789.00
534.00	1704.00
535.00	1696.00
536.00	1652.00
537.00	1677.00
538.00	1713.00
539.00	1668.00
540.00	1794.00
541.00	1779.00
542.00	1744.00
543.00	1794.00
544.00	1773.00
545.00	1795.00
546.00	1775.00
547.00	1782.00
548.00	1831.00
549.00	1813.00
550.00	1904.00
551.00	1860.00
552.00	1974.00
553.00	2096.00
554.00	2281.00
555.00	2308.00
556.00	2782.00
557.00	3356.00
558.00	4079.00
559.00	5115.00
560.00	6433.00
561.00	8239.00
562.00	10204.00
563.00	12335.00
564.00	14994.00
565.00	17566.00
566.00	20157.00
567.00	22202.00
568.00	23531.00
569.00	25028.00
570.00	25002.00
571.00	24278.00
572.00	22868.00
573.00	21232.00
574.00	19271.00
575.00	16623.00
576.00	14108.00
577.00	11664.00
578.00	9481.00
579.00	7572.00
580.00	5933.00
581.00	4947.00
582.00	3969.00
583.00	3307.00
584.00	2834.00
585.00	2639.00
586.00	2495.00
587.00	2422.00
588.00	2486.00
589.00	2458.00
590.00	2720.00
591.00	2745.00
592.00	2875.00
593.00	3086.00
594.00	3152.00
595.00	3510.00
596.00	3917.00
597.00	4279.00
598.00	5285.00
599.00	6410.00
600.00	8259.00
601.00	11251.00
602.00	15760.00
603.00	22394.00
604.00	32162.00
605.00	45618.00
606.00	64623.00
607.00	90861.00
608.00	123499.00
609.00	164959.00
610.00	213521.00
611.00	269811.00
612.00	331119.00
613.00	393970.00
614.00	456694.00
615.00	513611.00
616.00	560537.00
617.00	595126.00
618.00	609153.00
619.00	609618.00
620.00	588664.00
621.00	551722.00
622.00	502722.00
623.00	443099.00
624.00	379944.00
625.00	316406.00
626.00	256129.00
627.00	201108.00
628.00	153400.00
629.00	114932.00
630.00	82781.00
631.00	59616.00
632.00	41491.00
633.00	28830.00
634.00	19920.00
635.00	13964.00
636.00	10152.00
637.00	7611.00
638.00	6003.00
639.00	5002.00
640.00	4376.00
641.00	4057.00
642.00	3747.00
643.00	3556.00
644.00	3675.00
645.00	3455.00
646.00	3547.00
647.00	3592.00
648.00	3616.00
649.00	3613.00
650.00	3703.00
651.00	3827.00
652.00	3890.00
653.00	3879.00
654.00	3996.00
655.00	4156.00
656.00	4192.00
657.00	4477.00
658.00	4472.00
659.00	4889.00
660.00	5264.00
661.00	5510.00
662.00	6049.00
663.00	6577.00
664.00	7356.00
665.00	8394.00
666.00	9822.00
667.00	11771.00
668.00	14016.00
669.00	17435.00
670.00	22111.00
671.00	26850.00
672.00	33188.00
673.00	40640.00
674.00	48764.00
675.00	57636.00
676.00	66701.00
677.00	75713.00
678.00	83862.00
679.00	90605.00
680.00	94901.00
681.00	98347.00
682.00	98232.00
683.00	94907.00
684.00	90193.00
685.00	83381.00
686.00	74473.00
687.00	65780.00
688.00	55866.00
689.00	46808.00
690.00	37802.00
691.00	30544.00
692.00	23691.00
693.00	18144.00
694.00	13901.00
695.00	10481.00
696.00	8083.00
697.00	6199.00
698.00	5046.00
699.00	4228.00
700.00	3630.00
701.00	3319.00
702.00	2942.00
703.00	2995.00
704.00	2911.00
705.00	2935.00
706.00	2981.00
707.00	3021.00
708.00	3184.00
709.00	3227.00
710.00	3385.00
711.00	3542.00
712.00	3749.00
713.00	3915.00
714.00	4249.00
715.00	4436.00
716.00	4729.00
717.00	4896.00
718.00	5093.00
719.00	5236.00
720.00	5458.00
721.00	5603.00
722.00	5427.00
723.00	5520.00
724.00	5382.00
725.00	5168.00
726.00	4941.00
727.00	4822.00
728.00	4401.00
729.00	4221.00
730.00	4096.00
731.00	3826.00
732.00	3643.00
733.00	3564.00
734.00	3384.00
735.00	3270.00
736.00	3180.00
737.00	3059.00
738.00	3062.00
739.00	2983.00
740.00	3080.00
741.00	2947.00
742.00	3053.00
743.00	2911.00
744.00	2875.00
745.00	2872.00
746.00	2934.00
747.00	2910.00
748.00	2947.00
749.00	2944.00
750.00	2959.00
751.00	2965.00
752.00	2958.00
753.00	3119.00
754.00	2934.00
755.00	3054.00
756.00	3015.00
757.00	3069.00
758.00	3170.00
759.00	3185.00
760.00	3184.00
761.00	3231.00
762.00	3367.00
763.00	3430.00
764.00	3487.00
765.00	3560.00
766.00	3693.00
767.00	4013.00
768.00	4170.00
769.00	4138.00
770.00	4332.00
771.00	4529.00
772.00	4779.00
773.00	4969.00
774.00	5102.00
775.00	5106.00
776.00	5249.00
777.00	5408.00
778.00	5413.00
779.00	5331.00
780.00	5232.00
781.00	5193.00
782.00	5254.00
783.00	5111.00
784.00	5046.00
785.00	4984.00
786.00	4899.00
787.00	5007.00
788.00	4768.00
789.00	4866.00
790.00	4813.00
791.00	4985.00
792.00	4885.00
793.00	4905.00
794.00	4944.00
795.00	5003.00
796.00	5110.00
797.00	5110.00
798.00	4909.00
799.00	4998.00
800.00	5116.00
801.00	5116.00
802.00	4956.00
803.00	5073.00
804.00	5070.00
805.00	5049.00
806.00	5008.00
807.00	5069.00
808.00	4967.00
809.00	4987.00
810.00	4967.00
811.00	5027.00
812.00	4953.00
813.00	4875.00
814.00	4981.00
815.00	4871.00
816.00	4917.00
817.00	4936.00
818.00	4995.00
819.00	5028.00
820.00	5167.00
821.00	5466.00
822.00	5671.00
823.00	5952.00
824.00	6321.00
825.00	6625.00
826.00	6922.00
827.00	7483.00
828.00	7993.00
829.00	8302.00
830.00	8681.00
831.00	9011.00
832.00	9133.00
833.00	9177.00
834.00	9353.00
835.00	9178.00
836.00	8921.00
837.00	8498.00
838.00	8213.00
839.00	7974.00
840.00	7489.00
841.00	6929.00
842.00	6515.00
843.00	6287.00
844.00	6016.00
845.00	5689.00
846.00	5519.00
847.00	5283.00
848.00	5115.00
849.00	5053.00
850.00	5100.00
851.00	4927.00
852.00	5111.00
853.00	5143.00
854.00	5058.00
855.00	5285.00
856.00	5172.00
857.00	5075.00
858.00	5278.00
859.00	5041.00
860.00	5267.00
861.00	5296.00
862.00	5245.00
863.00	5395.00
864.00	5100.00
865.00	5303.00
866.00	5216.00
867.00	5184.00
868.00	5392.00
869.00	5357.00
870.00	5387.00
871.00	5233.00
872.00	5261.00
873.00	5282.00
874.00	5343.00
875.00	5325.00
876.00	5374.00
877.00	5567.00
878.00	5670.00
879.00	5546.00
880.00	5630.00
881.00	5667.00
882.00	5734.00
883.00	5714.00
884.00	6011.00
885.00	6090.00
886.00	6081.00
887.00	6045.00
888.00	6040.00
889.00	6211.00
890.00	6388.00
891.00	6213.00
892.00	6205.00
893.00	6267.00
894.00	6229.00
895.00	6133.00
896.00	6223.00
897.00	6374.00
898.00	6178.00
899.00	6276.00
900.00	6301.00
901.00	6111.00
902.00	6215.00
903.00	6133.00
904.00	6091.00
905.00	6105.00
906.00	6164.00
907.00	6053.00
908.00	6091.00
909.00	6159.00
910.00	6217.00
911.00	6246.00
912.00	6252.00
913.00	6387.00
914.00	6428.00
915.00	6403.00
916.00	6501.00
917.00	6623.00
918.00	6901.00
919.00	6783.00
920.00	7050.00
921.00	6874.00
922.00	6931.00
923.00	7170.00
924.00	7240.00
925.00	7183.00
926.00	7071.00
927.00	7092.00
928.00	7062.00
929.00	7124.00
930.00	7008.00
931.00	6978.00
932.00	6909.00
933.00	6710.00
934.00	6920.00
935.00	6609.00
936.00	6695.00
937.00	6591.00
938.00	6607.00
939.00	6458.00
940.00	6383.00
941.00	6510.00
942.00	6334.00
943.00	6517.00
944.00	6332.00
945.00	6230.00
946.00	6426.00
947.00	6229.00
948.00	6188.00
949.00	6288.00
950.00	6161.00
951.00	6300.00
952.00	6230.00
953.00	6266.00
954.00	6340.00
955.00	6157.00
956.00	6294.00
957.00	6365.00
958.00	6278.00
959.00	6212.00
960.00	6265.00
961.00	6272.00
962.00	6296.00
963.00	6345.00
964.00	6162.00
965.00	6378.00
966.00	6295.00
967.00	6285.00
968.00	6194.00
969.00	6289.00
970.00	6455.00
971.00	6284.00
972.00	6331.00
973.00	6302.00
974.00	6433.00
975.00	6204.00
976.00	6452.00
977.00	6379.00
978.00	6240.00
979.00	6564.00
980.00	6257.00
981.00	6404.00
982.00	6300.00
983.00	6343.00
984.00	6396.00
985.00	6431.00
986.00	6472.00
987.00	6501.00
988.00	6360.00
989.00	6522.00
990.00	6562.00
991.00	6657.00
992.00	6652.00
993.00	6567.00
994.00	6584.00
995.00	6611.00
996.00	6463.00
997.00	6612.00
998.00	6485.00
999.00	6553.00
1000.00	6517.00
1001.00	6691.00
1002.00	6568.00
1003.00	6570.00
1004.00	6542.00
1005.00	6651.00
1006.00	6738.00
1007.00	6835.00
1008.00	6824.00
1009.00	6780.00
1010.00	6926.00
1011.00	6955.00
1012.00	7061.00
1013.00	7157.00
1014.00	7065.00
1015.00	7137.00
1016.00	7060.00
1017.00	7110.00
1018.00	7076.00
1019.00	6841.00
1020.00	7182.00
1021.00	7096.00
1022.00	6981.00
1023.00	6955.00
1024.00	6908.00
1025.00	6783.00
1026.00	6951.00
1027.00	6521.00
1028.00	6651.00
1029.00	6565.00
1030.00	6582.00
1031.00	6593.00
1032.00	6590.00
1033.00	6438.00
1034.00	6439.00
1035.00	6451.00
1036.00	6517.00
1037.00	6429.00
1038.00	6562.00
1039.00	6491.00
1040.00	6517.00
1041.00	6438.00
1042.00	6624.00
1043.00	6565.00
1044.00	6600.00
1045.00	6582.00
1046.00	6788.00
1047.00	6809.00
1048.00	6696.00
1049.00	6795.00
1050.00	6660.00
1051.00	6762.00
1052.00	6846.00
1053.00	6763.00
1054.00	6855.00
1055.00	6843.00
1056.00	6831.00
1057.00	6871.00
1058.00	6782.00
1059.00	6773.00
1060.00	6835.00
1061.00	6763.00
1062.00	6925.00
1063.00	6830.00
1064.00	6888.00
1065.00	6796.00
1066.00	6948.00
1067.00	6898.00
1068.00	6872.00
1069.00	6861.00
1070.00	6728.00
1071.00	6890.00
1072.00	6825.00
1073.00	6891.00
1074.00	6906.00
1075.00	7012.00
1076.00	6857.00
1077.00	6841.00
1078.00	6819.00
1079.00	6823.00
1080.00	6980.00
1081.00	7068.00
1082.00	6892.00
1083.00	7117.00
1084.00	6998.00
1085.00	7056.00
1086.00	6965.00
1087.00	7139.00
1088.00	6940.00
1089.00	7019.00
1090.00	6978.00
1091.00	7103.00
1092.00	7003.00
1093.00	7094.00
1094.00	7133.00
1095.00	6952.00
1096.00	7060.00
1097.00	7025.00
1098.00	7064.00
1099.00	7144.00
1100.00	6999.00
1101.00	7126.00
1102.00	6961.00
1103.00	7048.00
1104.00	7036.00
1105.00	7122.00
1106.00	7082.00
1107.00	7044.00
1108.00	7090.00
1109.00	7058.00
1110.00	7175.00
1111.00	7059.00
1112.00	7232.00
1113.00	7025.00
1114.00	7189.00
1115.00	7064.00
1116.00	7161.00
1117.00	7184.00
1118.00	7080.00
1119.00	7064.00
1120.00	7125.00
1121.00	7108.00
1122.00	7156.00
1123.00	7113.00
1124.00	7204.00
1125.00	7053.00
1126.00	7194.00
1127.00	7044.00
1128.00	7122.00
1129.00	7061.00
1130.00	6993.00
1131.00	6958.00
1132.00	6956.00
1133.00	7140.00
1134.00	7080.00
1135.00	6955.00
1136.00	7086.00
1137.00	7094.00
1138.00	7205.00
1139.00	7145.00
1140.00	7198.00
1141.00	7151.00
1142.00	7083.00
1143.00	7007.00
1144.00	7314.00
1145.00	7150.00
1146.00	7159.00
1147.00	7149.00
1148.00	7099.00
1149.00	7130.00
1150.00	7166.00
1151.00	7195.00
1152.00	7109.00
1153.00	7110.00
1154.00	7109.00
1155.00	7055.00
1156.00	7058.00
1157.00	7140.00
1158.00	7006.00
1159.00	6967.00
1160.00	7048.00
1161.00	7021.00
1162.00	7005.00
1163.00	7115.00
1164.00	6954.00
1165.00	6973.00
1166.00	7006.00
1167.00	7102.00
1168.00	6907.00
1169.00	6965.00
1170.00	6845.00
1171.00	6958.00
1172.00	6947.00
1173.00	6772.00
1174.00	7077.00
1175.00	6926.00
1176.00	7095.00
1177.00	6819.00
1178.00	6979.00
1179.00	7079.00
1180.00	7074.00
1181.00	6955.00
1182.00	7077.00
1183.00	7175.00
1184.00	7222.00
1185.00	7046.00
1186.00	6978.00
1187.00	7027.00
1188.00	7162.00
1189.00	7147.00
1190.00	7041.00
1191.00	7284.00
1192.00	7102.00
1193.00	6937.00
1194.00	7196.00
1195.00	6979.00
1196.00	6831.00
1197.00	6952.00
1198.00	7225.00
1199.00	7184.00
1200.00	7147.00
1201.00	7131.00
1202.00	7087.00
1203.00	7041.00
1204.00	7216.00
1205.00	7184.00
1206.00	7111.00
1207.00	7326.00
1208.00	7203.00
1209.00	7226.00
1210.00	7372.00
1211.00	7281.00
1212.00	7307.00
1213.00	7340.00
1214.00	7539.00
1215.00	7491.00
1216.00	7450.00
1217.00	7622.00
1218.00	7525.00
1219.00	7540.00
1220.00	7847.00
1221.00	7656.00
1222.00	7877.00
1223.00	8001.00
1224.00	8034.00
1225.00	7995.00
1226.00	8433.00
1227.00	8152.00
1228.00	8156.00
1229.00	8319.00
1230.00	8344.00
1231.00	8561.00
1232.00	8561.00
1233.00	8611.00
1234.00	8586.00
1235.00	8618.00
1236.00	8737.00
1237.00	8520.00
1238.00	8510.00
1239.00	8592.00
1240.00	8254.00
1241.00	8291.00
1242.00	8088.00
1243.00	8063.00
1244.00	7839.00
1245.00	7998.00
1246.00	7583.00
1247.00	7629.00
1248.00	7534.00
1249.00	7529.00
1250.00	7501.00
1251.00	7378.00
1252.00	7157.00
1253.00	7254.00
1254.00	7179.00
1255.00	7153.00
1256.00	7127.00
1257.00	7195.00
1258.00	7121.00
1259.00	7290.00
1260.00	7028.00
1261.00	7246.00
1262.00	7138.00
1263.00	7083.00
1264.00	7072.00
1265.00	7005.00
1266.00	7241.00
1267.00	7220.00
1268.00	7187.00
1269.00	7145.00
1270.00	7169.00
1271.00	7150.00
1272.00	7365.00
1273.00	7333.00
1274.00	7525.00
1275.00	7537.00
1276.00	7595.00
1277.00	7652.00
1278.00	7790.00
1279.00	8035.00
1280.00	8166.00
1281.00	8273.00
1282.00	8252.00
1283.00	8579.00
1284.00	8396.00
1285.00	9084.00
1286.00	9032.00
1287.00	8933.00
1288.00	9168.00
1289.00	9218.00
1290.00	9213.00
1291.00	9373.00
1292.00	9162.00
1293.00	9304.00
1294.00	9200.00
1295.00	9044.00
1296.00	8995.00
1297.00	8782.00
1298.00	8642.00
1299.00	8477.00
1300.00	8412.00
1301.00	8161.00
1302.00	8105.00
1303.00	7876.00
1304.00	7862.00
1305.00	7552.00
1306.00	7413.00
1307.00	7563.00
1308.00	7192.00
1309.00	7270.00
1310.00	7137.00
1311.00	7062.00
1312.00	7111.00
1313.00	7121.00
1314.00	7003.00
1315.00	6969.00
1316.00	7008.00
1317.00	6904.00
1318.00	6929.00
1319.00	6943.00
1320.00	6882.00
1321.00	6869.00
1322.00	6914.00
1323.00	6826.00
1324.00	6835.00
1325.00	6824.00
1326.00	6820.00
1327.00	6806.00
1328.00	6885.00
1329.00	6791.00
1330.00	6873.00
1331.00	6924.00
1332.00	6669.00
1333.00	6896.00
1334.00	6899.00
1335.00	6687.00
1336.00	6867.00
1337.00	6844.00
1338.00	6914.00
1339.00	6847.00
1340.00	6829.00
1341.00	6736.00
1342.00	6922.00
1343.00	6933.00
1344.00	6955.00
1345.00	6818.00
1346.00	6924.00
1347.00	7087.00
1348.00	7128.00
1349.00	7026.00
1350.00	7242.00
1351.00	7431.00
1352.00	7246.00
1353.00	7408.00
1354.00	7591.00
1355.00	7767.00
1356.00	7647.00
1357.00	7970.00
1358.00	7904.00
1359.00	7965.00
1360.00	8043.00
1361.00	8137.00
1362.00	8204.00
1363.00	8273.00
1364.00	8366.00
1365.00	8230.00
1366.00	8085.00
1367.00	8081.00
1368.00	7814.00
1369.00	7894.00
1370.00	7859.00
1371.00	7589.00
1372.00	7420.00
1373.00	7340.00
1374.00	7420.00
1375.00	7192.00
1376.00	7127.00
1377.00	6867.00
1378.00	6849.00
1379.00	6765.00
1380.00	6628.00
1381.00	6604.00
1382.00	6627.00
1383.00	6487.00
1384.00	6389.00
1385.00	6437.00
1386.00	6397.00
1387.00	6244.00
1388.00	6317.00
1389.00	6176.00
1390.00	6286.00
1391.00	6263.00
1392.00	6291.00
1393.00	6299.00
1394.00	6321.00
1395.00	6204.00
1396.00	6191.00
1397.00	6268.00
1398.00	6201.00
1399.00	6078.00
1400.00	6115.00
1401.00	6281.00
1402.00	6090.00
1403.00	6156.00
1404.00	6240.00
1405.00	6075.00
1406.00	6051.00
1407.00	6194.00
1408.00	6130.00
1409.00	6086.00
1410.00	6151.00
1411.00	6275.00
1412.00	5985.00
1413.00	6131.00
1414.00	6203.00
1415.00	5991.00
1416.00	6080.00
1417.00	6142.00
1418.00	6165.00
1419.00	5949.00
1420.00	6060.00
1421.00	6146.00
1422.00	6221.00
1423.00	6028.00
1424.00	6201.00
1425.00	6265.00
1426.00	6178.00
1427.00	6216.00
1428.00	6227.00
1429.00	6310.00
1430.00	6478.00
1431.00	6363.00
1432.00	6452.00
1433.00	6515.00
1434.00	6701.00
1435.00	6471.00
1436.00	6634.00
1437.00	6767.00
1438.00	6755.00
1439.00	6657.00
1440.00	6660.00
1441.00	6844.00
1442.00	6638.00
1443.00	6686.00
1444.00	6675.00
1445.00	6779.00
1446.00	6574.00
1447.00	6682.00
1448.00	6578.00
1449.00	6343.00
1450.00	6424.00
1451.00	6412.00
1452.00	6403.00
1453.00	6303.00
1454.00	6221.00
1455.00	6079.00
1456.00	6030.00
1457.00	5995.00
1458.00	6031.00
1459.00	5898.00
1460.00	5944.00
1461.00	5889.00
1462.00	5937.00
1463.00	5741.00
1464.00	5901.00
1465.00	6049.00
1466.00	5868.00
1467.00	5877.00
1468.00	5756.00
1469.00	5795.00
1470.00	5767.00
1471.00	5785.00
1472.00	5871.00
1473.00	5765.00
1474.00	5764.00
1475.00	5735.00
1476.00	5688.00
1477.00	5735.00
1478.00	5775.00
1479.00	5687.00
1480.00	5755.00
1481.00	5709.00
1482.00	5648.00
1483.00	5929.00
1484.00	5756.00
1485.00	5731.00
1486.00	5614.00
1487.00	5774.00
1488.00	5792.00
1489.00	5781.00
1490.00	5810.00
1491.00	5844.00
1492.00	5640.00
1493.00	5817.00
1494.00	5847.00
1495.00	5695.00
1496.00	5850.00
1497.00	5728.00
1498.00	5932.00
1499.00	5767.00
1500.00	5902.00
1501.00	5975.00
1502.00	6018.00
1503.00	5925.00
1504.00	6049.00
1505.00	6094.00
1506.00	6092.00
1507.00	6158.00
1508.00	6290.00
1509.00	6321.00
1510.00	6519.00
1511.00	6488.00
1512.00	6463.00
1513.00	6579.00
1514.00	6667.00
1515.00	6771.00
1516.00	6821.00
1517.00	6892.00
1518.00	6763.00
1519.00	6906.00
1520.00	6887.00
1521.00	6833.00
1522.00	6893.00
1523.00	6884.00
1524.00	6748.00
1525.00	6895.00
1526.00	6800.00
1527.00	6707.00
1528.00	6615.00
1529.00	6617.00
1530.00	6667.00
1531.00	6505.00
1532.00	6552.00
1533.00	6463.00
1534.00	6326.00
1535.00	6544.00
1536.00	6336.00
1537.00	6244.00
1538.00	6282.00
1539.00	6349.00
1540.00	6303.00
1541.00	6249.00
1542.00	6377.00
1543.00	6338.00
1544.00	6378.00
1545.00	6607.00
1546.00	6429.00
1547.00	6610.00
1548.00	6555.00
1549.00	6582.00
1550.00	6649.00
1551.00	6677.00
1552.00	6761.00
1553.00	6785.00
1554.00	6880.00
1555.00	7126.00
1556.00	7137.00
1557.00	7094.00
1558.00	7302.00
1559.00	7305.00
1560.00	7506.00
1561.00	7651.00
1562.00	7409.00
1563.00	7714.00
1564.00	8101.00
1565.00	8146.00
1566.00	8171.00
1567.00	8461.00
1568.00	8434.00
1569.00	8669.00
1570.00	8568.00
1571.00	8676.00
1572.00	8974.00
1573.00	8968.00
1574.00	9286.00
1575.00	9388.00
1576.00	9335.00
1577.00	9453.00
1578.00	9624.00
1579.00	9569.00
1580.00	9880.00
1581.00	9974.00
1582.00	9828.00
1583.00	9990.00
1584.00	9969.00
1585.00	10074.00
1586.00	9982.00
1587.00	10172.00
1588.00	10038.00
1589.00	10132.00
1590.00	10199.00
1591.00	10165.00
1592.00	10126.00
1593.00	10209.00
1594.00	9930.00
1595.00	9920.00
1596.00	9831.00
1597.00	9740.00
1598.00	9799.00
1599.00	9836.00
1600.00	9627.00
1601.00	9407.00
1602.00	9274.00
1603.00	9379.00
1604.00	8834.00
1605.00	9118.00
1606.00	8984.00
1607.00	8687.00
1608.00	8547.00
1609.00	8443.00
1610.00	8319.00
1611.00	8178.00
1612.00	7991.00
1613.00	7789.00
1614.00	7899.00
1615.00	7871.00
1616.00	7518.00
1617.00	7470.00
1618.00	7182.00
1619.00	7033.00
1620.00	6923.00
1621.00	6798.00
1622.00	6777.00
1623.00	6568.00
1624.00	6584.00
1625.00	6428.00
1626.00	6127.00
1627.00	6204.00
1628.00	6164.00
1629.00	5937.00
1630.00	5874.00
1631.00	5875.00
1632.00	5778.00
1633.00	5680.00
1634.00	5591.00
1635.00	5447.00
1636.00	5572.00
1637.00	5425.00
1638.00	5369.00
1639.00	5232.00
1640.00	5224.00
1641.00	5146.00
1642.00	5141.00
1643.00	5107.00
1644.00	4989.00
1645.00	5115.00
1646.00	4886.00
1647.00	4967.00
1648.00	4889.00
1649.00	4913.00
1650.00	4927.00
1651.00	4891.00
1652.00	4730.00
1653.00	4943.00
1654.00	4728.00
1655.00	4861.00
1656.00	4780.00
1657.00	4950.00
1658.00	4970.00
1659.00	5018.00
1660.00	5044.00
1661.00	5084.00
1662.00	5219.00
1663.00	5423.00
1664.00	5676.00
1665.00	5778.00
1666.00	5803.00
1667.00	5948.00
1668.00	6212.00
1669.00	6615.00
1670.00	6730.00
1671.00	6969.00
1672.00	7235.00
1673.00	7417.00
1674.00	7586.00
1675.00	7932.00
1676.00	7967.00
1677.00	8537.00
1678.00	8482.00
1679.00	8767.00
1680.00	8541.00
1681.00	8591.00
1682.00	8717.00
1683.00	8649.00
1684.00	8761.00
1685.00	8730.00
1686.00	8465.00
1687.00	8289.00
1688.00	7941.00
1689.00	7773.00
1690.00	7560.00
1691.00	7287.00
1692.00	6978.00
1693.00	6674.00
1694.00	6338.00
1695.00	6128.00
1696.00	5838.00
1697.00	5537.00
1698.00	5404.00
1699.00	5113.00
1700.00	4938.00
1701.00	4758.00
1702.00	4563.00
1703.00	4483.00
1704.00	4349.00
1705.00	4253.00
1706.00	4120.00
1707.00	4083.00
1708.00	4054.00
1709.00	3997.00
1710.00	3871.00
1711.00	3961.00
1712.00	3898.00
1713.00	3785.00
1714.00	3727.00
1715.00	3731.00
1716.00	3710.00
1717.00	3657.00
1718.00	3749.00
1719.00	3684.00
1720.00	3734.00
1721.00	3770.00
1722.00	3648.00
1723.00	3734.00
1724.00	3658.00
1725.00	3594.00
1726.00	3577.00
1727.00	3670.00
1728.00	3823.00
1729.00	3713.00
1730.00	3683.00
1731.00	3639.00
1732.00	3741.00
1733.00	3746.00
1734.00	3631.00
1735.00	3540.00
1736.00	3639.00
1737.00	3643.00
1738.00	3737.00
1739.00	3768.00
1740.00	3650.00
1741.00	3667.00
1742.00	3789.00
1743.00	3719.00
1744.00	3626.00
1745.00	3676.00
1746.00	3697.00
1747.00	3629.00
1748.00	3674.00
1749.00	3779.00
1750.00	3854.00
1751.00	3792.00
1752.00	3773.00
1753.00	3790.00
1754.00	3716.00
1755.00	3934.00
1756.00	3858.00
1757.00	3821.00
1758.00	3816.00
1759.00	3940.00
1760.00	3897.00
1761.00	3749.00
1762.00	3892.00
1763.00	3874.00
1764.00	3794.00
1765.00	4063.00
1766.00	3896.00
1767.00	3804.00
1768.00	3936.00
1769.00	4083.00
1770.00	3901.00
1771.00	3869.00
1772.00	3781.00
1773.00	3920.00
1774.00	3887.00
1775.00	3660.00
1776.00	3805.00
1777.00	3776.00
1778.00	3726.00
1779.00	3758.00
1780.00	3769.00
1781.00	3703.00
1782.00	3694.00
1783.00	3706.00
1784.00	3706.00
1785.00	3503.00
1786.00	3551.00
1787.00	3601.00
1788.00	3464.00
1789.00	3567.00
1790.00	3538.00
1791.00	3572.00
1792.00	3442.00
1793.00	3430.00
1794.00	3414.00
1795.00	3370.00
1796.00	3422.00
1797.00	3269.00
1798.00	3279.00
1799.00	3180.00
1800.00	3152.00
1801.00	3031.00
1802.00	3201.00
1803.00	3054.00
1804.00	2921.00
1805.00	2912.00
1806.00	2941.00
1807.00	2930.00
1808.00	2875.00
1809.00	2873.00
1810.00	2928.00
1811.00	2838.00
1812.00	2761.00
1813.00	2840.00
1814.00	2808.00
1815.00	2672.00
1816.00	2672.00
1817.00	2689.00
1818.00	2641.00
1819.00	2670.00
1820.00	2635.00
1821.00	2527.00
1822.00	2642.00
1823.00	2565.00
1824.00	2551.00
1825.00	2430.00
1826.00	2432.00
1827.00	2484.00
1828.00	2296.00
1829.00	2427.00
1830.00	2320.00
1831.00	2313.00
1832.00	2349.00
1833.00	2261.00
1834.00	2230.00
1835.00	2279.00
1836.00	2330.00
1837.00	2185.00
1838.00	2273.00
1839.00	2298.00
1840.00	2315.00
1841.00	2226.00
1842.00	2095.00
1843.00	2137.00
1844.00	2095.00
1845.00	2176.00
1846.00	2155.00
1847.00	2067.00
1848.00	2137.00
1849.00	2021.00
1850.00	2010.00
1851.00	1932.00
1852.00	2037.00
1853.00	2016.00
1854.00	2034.00
1855.00	1943.00
1856.00	2000.00
1857.00	1994.00
1858.00	1943.00
1859.00	1911.00
1860.00	1956.00
1861.00	1810.00
1862.00	1965.00
1863.00	1997.00
1864.00	1903.00
1865.00	1864.00
1866.00	1934.00
1867.00	1930.00
1868.00	1957.00
1869.00	1896.00
1870.00	1928.00
1871.00	1981.00
1872.00	1929.00
1873.00	1986.00
1874.00	1959.00
1875.00	2022.00
1876.00	2053.00
1877.00	2006.00
1878.00	2025.00
1879.00	2086.00
1880.00	2203.00
1881.00	2173.00
1882.00	2230.00
1883.00	2131.00
1884.00	2273.00
1885.00	2283.00
1886.00	2265.00
1887.00	2346.00
1888.00	2296.00
1889.00	2330.00
1890.00	2352.00
1891.00	2455.00
1892.00	2294.00
1893.00	2289.00
1894.00	2267.00
1895.00	2238.00
1896.00	2166.00
1897.00	2099.00
1898.00	1935.00
1899.00	1999.00
1900.00	1912.00
1901.00	1968.00
1902.00	1921.00
1903.00	1725.00
1904.00	1822.00
1905.00	1839.00
1906.00	1701.00
1907.00	1766.00
1908.00	1672.00
1909.00	1680.00
1910.00	1667.00
1911.00	1564.00
1912.00	1615.00
1913.00	1645.00
1914.00	1616.00
1915.00	1594.00
1916.00	1631.00
1917.00	1591.00
1918.00	1590.00
1919.00	1606.00
1920.00	1580.00
1921.00	1575.00
1922.00	1531.00
1923.00	1555.00
1924.00	1552.00
1925.00	1519.00
1926.00	1515.00
1927.00	1513.00
1928.00	1445.00
1929.00	1459.00
1930.00	1498.00
1931.00	1481.00
1932.00	1383.00
1933.00	1428.00
1934.00	1398.00
1935.00	1448.00
1936.00	1365.00
1937.00	1374.00
1938.00	1362.00
1939.00	1288.00
1940.00	1292.00
1941.00	1288.00
1942.00	1334.00
1943.00	1228.00
1944.00	1281.00
1945.00	1342.00
1946.00	1237.00
1947.00	1284.00
1948.00	1252.00
1949.00	1224.00
1950.00	1187.00
1951.00	1243.00
1952.00	1254.00
1953.00	1257.00
1954.00	1229.00
1955.00	1236.00
1956.00	1199.00
1957.00	1176.00
1958.00	1182.00
1959.00	1142.00
1960.00	1146.00
1961.00	1169.00
1962.00	1146.00
1963.00	1199.00
1964.00	1198.00
1965.00	1165.00
1966.00	1146.00
1967.00	1161.00
1968.00	1117.00
1969.00	1088.00
1970.00	1130.00
1971.00	1135.00
1972.00	1197.00
1973.00	1084.00
1974.00	1119.00
1975.00	1112.00
1976.00	1095.00
1977.00	1058.00
1978.00	1081.00
1979.00	1031.00
1980.00	1093.00
1981.00	1012.00
1982.00	1096.00
1983.00	1050.00
1984.00	1091.00
1985.00	1073.00
1986.00	1075.00
1987.00	976.00
1988.00	1074.00
1989.00	1040.00
1990.00	1037.00
1991.00	1031.00
1992.00	1012.00
1993.00	1051.00
1994.00	996.00
1995.00	987.00
1996.00	971.00
1997.00	906.00
1998.00	952.00
1999.00	1033.00
2000.00	977.00
2001.00	972.00
2002.00	998.00
2003.00	975.00
2004.00	917.00
2005.00	871.00
2006.00	931.00
2007.00	915.00
2008.00	947.00
2009.00	951.00
2010.00	913.00
2011.00	858.00
2012.00	903.00
2013.00	926.00
2014.00	918.00
2015.00	883.00
2016.00	921.00
2017.00	837.00
2018.00	882.00
2019.00	864.00
2020.00	900.00
2021.00	901.00
2022.00	842.00
2023.00	849.00
2024.00	806.00
2025.00	889.00
2026.00	835.00
2027.00	805.00
2028.00	776.00
2029.00	744.00
2030.00	874.00
2031.00	768.00
2032.00	819.00
2033.00	841.00
2034.00	777.00
2035.00	748.00
2036.00	763.00
2037.00	750.00
2038.00	750.00
2039.00	720.00
2040.00	746.00
2041.00	727.00
2042.00	737.00
2043.00	742.00
2044.00	800.00
2045.00	771.00
2046.00	730.00
2047.00	681.00
2048.00	 0.00
