Date:	2023-09-18		
Time:	20:11		
Sample name:	Pellets		
Position:	501.600011	mm	
Sample surface:	5.930889	cm	
Tube anode:	Mo		
Tube voltage:	30	kV	
Tube current:	50	mA	
Comments	not in position		
Gain	5.810000		
peaking_time	0.300000	m-sec	
trigger_threshold	30.000000	V	
mca_bin_width	2.000000	no:	
number_mca_channels	2048.000000	no:	
gap_time	0.100000	m-sec	
trigger_peaking_time	0.050000	m-sec	
livetime	17.439939	seconds	
runtime	20.000326	seconds	
input_count_rate	105677.090750	cps	
output_count_rate	92148.597978	cps	
triggers	2046472.000000	seconds	
events_in_run	1834301.000000	seconds	
channel	content		
 1.00	 0.00
 2.00	 0.00
 3.00	 0.00
 4.00	 0.00
 5.00	 0.00
 6.00	 0.00
 7.00	 0.00
 8.00	 0.00
 9.00	 0.00
10.00	 0.00
11.00	 0.00
12.00	 0.00
13.00	 0.00
14.00	 0.00
15.00	 0.00
16.00	 0.00
17.00	 0.00
18.00	 0.00
19.00	 0.00
20.00	 0.00
21.00	 0.00
22.00	 0.00
23.00	 0.00
24.00	 0.00
25.00	 0.00
26.00	 0.00
27.00	 0.00
28.00	 0.00
29.00	 0.00
30.00	 0.00
31.00	 0.00
32.00	 2.00
33.00	 1.00
34.00	 5.00
35.00	 7.00
36.00	 4.00
37.00	10.00
38.00	14.00
39.00	18.00
40.00	28.00
41.00	46.00
42.00	61.00
43.00	71.00
44.00	91.00
45.00	101.00
46.00	125.00
47.00	160.00
48.00	186.00
49.00	195.00
50.00	208.00
51.00	221.00
52.00	229.00
53.00	240.00
54.00	257.00
55.00	245.00
56.00	255.00
57.00	279.00
58.00	290.00
59.00	301.00
60.00	283.00
61.00	328.00
62.00	276.00
63.00	315.00
64.00	330.00
65.00	338.00
66.00	301.00
67.00	353.00
68.00	318.00
69.00	315.00
70.00	334.00
71.00	308.00
72.00	342.00
73.00	328.00
74.00	344.00
75.00	329.00
76.00	340.00
77.00	344.00
78.00	322.00
79.00	333.00
80.00	324.00
81.00	311.00
82.00	323.00
83.00	333.00
84.00	292.00
85.00	306.00
86.00	324.00
87.00	309.00
88.00	333.00
89.00	309.00
90.00	309.00
91.00	298.00
92.00	302.00
93.00	304.00
94.00	291.00
95.00	295.00
96.00	299.00
97.00	285.00
98.00	271.00
99.00	295.00
100.00	272.00
101.00	309.00
102.00	269.00
103.00	279.00
104.00	268.00
105.00	257.00
106.00	288.00
107.00	266.00
108.00	240.00
109.00	260.00
110.00	258.00
111.00	247.00
112.00	257.00
113.00	262.00
114.00	244.00
115.00	218.00
116.00	226.00
117.00	262.00
118.00	243.00
119.00	274.00
120.00	272.00
121.00	228.00
122.00	251.00
123.00	231.00
124.00	211.00
125.00	191.00
126.00	204.00
127.00	232.00
128.00	220.00
129.00	201.00
130.00	221.00
131.00	221.00
132.00	196.00
133.00	200.00
134.00	211.00
135.00	208.00
136.00	230.00
137.00	284.00
138.00	340.00
139.00	397.00
140.00	498.00
141.00	685.00
142.00	848.00
143.00	933.00
144.00	1006.00
145.00	981.00
146.00	911.00
147.00	896.00
148.00	739.00
149.00	653.00
150.00	610.00
151.00	572.00
152.00	499.00
153.00	518.00
154.00	446.00
155.00	397.00
156.00	360.00
157.00	362.00
158.00	369.00
159.00	487.00
160.00	747.00
161.00	1291.00
162.00	2004.00
163.00	3231.00
164.00	4739.00
165.00	6596.00
166.00	8735.00
167.00	10492.00
168.00	11858.00
169.00	12159.00
170.00	11970.00
171.00	10628.00
172.00	8948.00
173.00	6869.00
174.00	5103.00
175.00	3691.00
176.00	2565.00
177.00	1904.00
178.00	1351.00
179.00	1118.00
180.00	926.00
181.00	817.00
182.00	731.00
183.00	709.00
184.00	787.00
185.00	912.00
186.00	1006.00
187.00	1131.00
188.00	1266.00
189.00	1262.00
190.00	1196.00
191.00	1150.00
192.00	1113.00
193.00	859.00
194.00	694.00
195.00	514.00
196.00	433.00
197.00	353.00
198.00	314.00
199.00	256.00
200.00	259.00
201.00	204.00
202.00	212.00
203.00	166.00
204.00	171.00
205.00	201.00
206.00	188.00
207.00	165.00
208.00	184.00
209.00	182.00
210.00	207.00
211.00	187.00
212.00	195.00
213.00	196.00
214.00	204.00
215.00	265.00
216.00	262.00
217.00	288.00
218.00	265.00
219.00	324.00
220.00	314.00
221.00	338.00
222.00	297.00
223.00	297.00
224.00	267.00
225.00	245.00
226.00	228.00
227.00	264.00
228.00	194.00
229.00	194.00
230.00	202.00
231.00	178.00
232.00	171.00
233.00	155.00
234.00	185.00
235.00	163.00
236.00	143.00
237.00	158.00
238.00	162.00
239.00	174.00
240.00	152.00
241.00	147.00
242.00	138.00
243.00	171.00
244.00	187.00
245.00	189.00
246.00	199.00
247.00	206.00
248.00	255.00
249.00	322.00
250.00	366.00
251.00	391.00
252.00	444.00
253.00	458.00
254.00	514.00
255.00	501.00
256.00	495.00
257.00	444.00
258.00	387.00
259.00	366.00
260.00	325.00
261.00	291.00
262.00	249.00
263.00	260.00
264.00	300.00
265.00	265.00
266.00	333.00
267.00	322.00
268.00	313.00
269.00	283.00
270.00	318.00
271.00	292.00
272.00	280.00
273.00	287.00
274.00	302.00
275.00	295.00
276.00	307.00
277.00	344.00
278.00	482.00
279.00	550.00
280.00	803.00
281.00	1042.00
282.00	1213.00
283.00	1651.00
284.00	1831.00
285.00	2058.00
286.00	2218.00
287.00	2294.00
288.00	2154.00
289.00	1964.00
290.00	1737.00
291.00	1417.00
292.00	1138.00
293.00	880.00
294.00	636.00
295.00	500.00
296.00	395.00
297.00	355.00
298.00	260.00
299.00	253.00
300.00	252.00
301.00	284.00
302.00	303.00
303.00	336.00
304.00	376.00
305.00	448.00
306.00	544.00
307.00	605.00
308.00	789.00
309.00	954.00
310.00	1261.00
311.00	1787.00
312.00	2646.00
313.00	3664.00
314.00	5225.00
315.00	7175.00
316.00	9253.00
317.00	11740.00
318.00	13996.00
319.00	16068.00
320.00	17472.00
321.00	17725.00
322.00	17726.00
323.00	16556.00
324.00	14685.00
325.00	12384.00
326.00	9790.00
327.00	7416.00
328.00	5416.00
329.00	3739.00
330.00	2535.00
331.00	1649.00
332.00	1103.00
333.00	774.00
334.00	628.00
335.00	491.00
336.00	523.00
337.00	619.00
338.00	756.00
339.00	904.00
340.00	1138.00
341.00	1628.00
342.00	2104.00
343.00	2587.00
344.00	3679.00
345.00	4999.00
346.00	7008.00
347.00	9841.00
348.00	14035.00
349.00	19890.00
350.00	27459.00
351.00	37062.00
352.00	47915.00
353.00	59979.00
354.00	71296.00
355.00	81699.00
356.00	89867.00
357.00	93964.00
358.00	93610.00
359.00	88882.00
360.00	81203.00
361.00	70505.00
362.00	58039.00
363.00	45688.00
364.00	34242.00
365.00	24721.00
366.00	16726.00
367.00	11009.00
368.00	7342.00
369.00	4351.00
370.00	2897.00
371.00	1801.00
372.00	1249.00
373.00	977.00
374.00	929.00
375.00	1010.00
376.00	1152.00
377.00	1435.00
378.00	1844.00
379.00	2514.00
380.00	3363.00
381.00	4698.00
382.00	5896.00
383.00	7669.00
384.00	9390.00
385.00	10826.00
386.00	12605.00
387.00	13470.00
388.00	14181.00
389.00	14338.00
390.00	13640.00
391.00	12372.00
392.00	10948.00
393.00	9322.00
394.00	7591.00
395.00	5916.00
396.00	4455.00
397.00	3245.00
398.00	2264.00
399.00	1589.00
400.00	1121.00
401.00	744.00
402.00	591.00
403.00	440.00
404.00	346.00
405.00	301.00
406.00	310.00
407.00	272.00
408.00	282.00
409.00	254.00
410.00	239.00
411.00	276.00
412.00	265.00
413.00	287.00
414.00	274.00
415.00	311.00
416.00	294.00
417.00	354.00
418.00	358.00
419.00	364.00
420.00	415.00
421.00	533.00
422.00	708.00
423.00	847.00
424.00	1136.00
425.00	1560.00
426.00	2137.00
427.00	3171.00
428.00	4136.00
429.00	5444.00
430.00	6870.00
431.00	8642.00
432.00	10274.00
433.00	12267.00
434.00	13075.00
435.00	14257.00
436.00	14915.00
437.00	14633.00
438.00	13681.00
439.00	12520.00
440.00	11150.00
441.00	9524.00
442.00	7938.00
443.00	6434.00
444.00	5253.00
445.00	4175.00
446.00	3422.00
447.00	2882.00
448.00	2540.00
449.00	2261.00
450.00	2177.00
451.00	2019.00
452.00	1759.00
453.00	1674.00
454.00	1524.00
455.00	1284.00
456.00	1191.00
457.00	1049.00
458.00	979.00
459.00	940.00
460.00	955.00
461.00	909.00
462.00	1011.00
463.00	1085.00
464.00	1199.00
465.00	1347.00
466.00	1480.00
467.00	1609.00
468.00	1749.00
469.00	1930.00
470.00	2285.00
471.00	2486.00
472.00	2686.00
473.00	2987.00
474.00	3333.00
475.00	3367.00
476.00	3518.00
477.00	3576.00
478.00	3526.00
479.00	3364.00
480.00	3148.00
481.00	2774.00
482.00	2473.00
483.00	2172.00
484.00	1833.00
485.00	1571.00
486.00	1221.00
487.00	1087.00
488.00	978.00
489.00	904.00
490.00	794.00
491.00	734.00
492.00	704.00
493.00	717.00
494.00	712.00
495.00	670.00
496.00	777.00
497.00	764.00
498.00	802.00
499.00	856.00
500.00	861.00
501.00	913.00
502.00	930.00
503.00	1009.00
504.00	1029.00
505.00	1035.00
506.00	1009.00
507.00	1110.00
508.00	1067.00
509.00	1104.00
510.00	1211.00
511.00	1155.00
512.00	1180.00
513.00	1210.00
514.00	1253.00
515.00	1356.00
516.00	1461.00
517.00	1551.00
518.00	1657.00
519.00	1715.00
520.00	1679.00
521.00	1803.00
522.00	1829.00
523.00	1845.00
524.00	1855.00
525.00	1868.00
526.00	1852.00
527.00	1733.00
528.00	1757.00
529.00	1548.00
530.00	1554.00
531.00	1452.00
532.00	1509.00
533.00	1419.00
534.00	1363.00
535.00	1299.00
536.00	1371.00
537.00	1336.00
538.00	1405.00
539.00	1429.00
540.00	1414.00
541.00	1490.00
542.00	1453.00
543.00	1468.00
544.00	1441.00
545.00	1430.00
546.00	1449.00
547.00	1429.00
548.00	1462.00
549.00	1433.00
550.00	1481.00
551.00	1514.00
552.00	1497.00
553.00	1543.00
554.00	1737.00
555.00	2022.00
556.00	2140.00
557.00	2483.00
558.00	2971.00
559.00	3718.00
560.00	4449.00
561.00	5721.00
562.00	6894.00
563.00	8579.00
564.00	10248.00
565.00	11970.00
566.00	13325.00
567.00	15079.00
568.00	15906.00
569.00	16518.00
570.00	16642.00
571.00	16224.00
572.00	15328.00
573.00	14041.00
574.00	12687.00
575.00	11177.00
576.00	9540.00
577.00	7845.00
578.00	6505.00
579.00	5181.00
580.00	4079.00
581.00	3370.00
582.00	2694.00
583.00	2413.00
584.00	2023.00
585.00	1938.00
586.00	1723.00
587.00	1808.00
588.00	1827.00
589.00	1851.00
590.00	1825.00
591.00	1973.00
592.00	2131.00
593.00	2148.00
594.00	2260.00
595.00	2515.00
596.00	2725.00
597.00	3026.00
598.00	3575.00
599.00	4234.00
600.00	5598.00
601.00	7259.00
602.00	9974.00
603.00	13953.00
604.00	19855.00
605.00	28445.00
606.00	39746.00
607.00	55290.00
608.00	75007.00
609.00	100065.00
610.00	129376.00
611.00	163154.00
612.00	200618.00
613.00	237938.00
614.00	275818.00
615.00	308963.00
616.00	337685.00
617.00	356537.00
618.00	368039.00
619.00	366488.00
620.00	354574.00
621.00	332439.00
622.00	302229.00
623.00	265860.00
624.00	229091.00
625.00	190402.00
626.00	154841.00
627.00	121284.00
628.00	92184.00
629.00	69367.00
630.00	50568.00
631.00	36411.00
632.00	25511.00
633.00	17865.00
634.00	12657.00
635.00	8909.00
636.00	6650.00
637.00	5027.00
638.00	4181.00
639.00	3480.00
640.00	3123.00
641.00	3060.00
642.00	2740.00
643.00	2827.00
644.00	2750.00
645.00	2704.00
646.00	2769.00
647.00	2789.00
648.00	2790.00
649.00	2829.00
650.00	2905.00
651.00	2943.00
652.00	2986.00
653.00	3121.00
654.00	3160.00
655.00	3366.00
656.00	3234.00
657.00	3455.00
658.00	3567.00
659.00	3653.00
660.00	3910.00
661.00	4108.00
662.00	4548.00
663.00	4782.00
664.00	5253.00
665.00	5909.00
666.00	6601.00
667.00	7900.00
668.00	9461.00
669.00	11248.00
670.00	13764.00
671.00	17060.00
672.00	20586.00
673.00	25319.00
674.00	30063.00
675.00	35197.00
676.00	41040.00
677.00	46178.00
678.00	50886.00
679.00	54668.00
680.00	57515.00
681.00	58982.00
682.00	58401.00
683.00	57101.00
684.00	54253.00
685.00	49672.00
686.00	45070.00
687.00	39655.00
688.00	33929.00
689.00	28330.00
690.00	23425.00
691.00	18766.00
692.00	14904.00
693.00	11388.00
694.00	9059.00
695.00	6862.00
696.00	5499.00
697.00	4447.00
698.00	3727.00
699.00	3366.00
700.00	3044.00
701.00	2900.00
702.00	2659.00
703.00	2682.00
704.00	2699.00
705.00	2661.00
706.00	2840.00
707.00	2754.00
708.00	2863.00
709.00	2901.00
710.00	3030.00
711.00	3131.00
712.00	3317.00
713.00	3338.00
714.00	3530.00
715.00	3592.00
716.00	3780.00
717.00	3958.00
718.00	4112.00
719.00	4157.00
720.00	4221.00
721.00	4336.00
722.00	4462.00
723.00	4146.00
724.00	4228.00
725.00	4027.00
726.00	3951.00
727.00	3776.00
728.00	3721.00
729.00	3550.00
730.00	3386.00
731.00	3216.00
732.00	3133.00
733.00	2980.00
734.00	2730.00
735.00	2827.00
736.00	2906.00
737.00	2761.00
738.00	2662.00
739.00	2598.00
740.00	2550.00
741.00	2583.00
742.00	2670.00
743.00	2628.00
744.00	2571.00
745.00	2607.00
746.00	2636.00
747.00	2580.00
748.00	2491.00
749.00	2660.00
750.00	2614.00
751.00	2623.00
752.00	2486.00
753.00	2582.00
754.00	2639.00
755.00	2697.00
756.00	2599.00
757.00	2716.00
758.00	2909.00
759.00	2841.00
760.00	2933.00
761.00	2924.00
762.00	3054.00
763.00	3024.00
764.00	3206.00
765.00	3271.00
766.00	3508.00
767.00	3484.00
768.00	3625.00
769.00	3788.00
770.00	3864.00
771.00	3927.00
772.00	4121.00
773.00	4319.00
774.00	4328.00
775.00	4469.00
776.00	4520.00
777.00	4639.00
778.00	4618.00
779.00	4624.00
780.00	4447.00
781.00	4500.00
782.00	4680.00
783.00	4420.00
784.00	4395.00
785.00	4388.00
786.00	4396.00
787.00	4273.00
788.00	4318.00
789.00	4272.00
790.00	4251.00
791.00	4295.00
792.00	4311.00
793.00	4504.00
794.00	4458.00
795.00	4366.00
796.00	4540.00
797.00	4535.00
798.00	4510.00
799.00	4467.00
800.00	4707.00
801.00	4673.00
802.00	4709.00
803.00	4746.00
804.00	4658.00
805.00	4641.00
806.00	4659.00
807.00	4632.00
808.00	4699.00
809.00	4736.00
810.00	4773.00
811.00	4581.00
812.00	4679.00
813.00	4629.00
814.00	4718.00
815.00	4663.00
816.00	4631.00
817.00	4627.00
818.00	4655.00
819.00	4859.00
820.00	4799.00
821.00	4999.00
822.00	4983.00
823.00	5328.00
824.00	5466.00
825.00	5675.00
826.00	5982.00
827.00	6331.00
828.00	6604.00
829.00	6822.00
830.00	6962.00
831.00	7252.00
832.00	7433.00
833.00	7598.00
834.00	7423.00
835.00	7312.00
836.00	7129.00
837.00	6968.00
838.00	6730.00
839.00	6521.00
840.00	6338.00
841.00	5963.00
842.00	5686.00
843.00	5399.00
844.00	5186.00
845.00	5017.00
846.00	5062.00
847.00	4865.00
848.00	4768.00
849.00	4685.00
850.00	4597.00
851.00	4712.00
852.00	4655.00
853.00	4781.00
854.00	4660.00
855.00	4880.00
856.00	4633.00
857.00	4748.00
858.00	4661.00
859.00	4786.00
860.00	4699.00
861.00	4905.00
862.00	4722.00
863.00	4570.00
864.00	4807.00
865.00	4803.00
866.00	4740.00
867.00	4903.00
868.00	4754.00
869.00	4682.00
870.00	4808.00
871.00	4714.00
872.00	4848.00
873.00	4901.00
874.00	4814.00
875.00	5008.00
876.00	5112.00
877.00	4948.00
878.00	5084.00
879.00	5122.00
880.00	5160.00
881.00	5264.00
882.00	5200.00
883.00	5402.00
884.00	5368.00
885.00	5377.00
886.00	5404.00
887.00	5437.00
888.00	5585.00
889.00	5545.00
890.00	5696.00
891.00	5675.00
892.00	5669.00
893.00	5727.00
894.00	5674.00
895.00	5685.00
896.00	5616.00
897.00	5560.00
898.00	5690.00
899.00	5589.00
900.00	5720.00
901.00	5598.00
902.00	5609.00
903.00	5642.00
904.00	5555.00
905.00	5726.00
906.00	5521.00
907.00	5769.00
908.00	5690.00
909.00	5699.00
910.00	5834.00
911.00	5905.00
912.00	5824.00
913.00	5779.00
914.00	5903.00
915.00	5882.00
916.00	6036.00
917.00	6122.00
918.00	6297.00
919.00	6185.00
920.00	6393.00
921.00	6313.00
922.00	6498.00
923.00	6402.00
924.00	6537.00
925.00	6500.00
926.00	6680.00
927.00	6434.00
928.00	6590.00
929.00	6572.00
930.00	6380.00
931.00	6405.00
932.00	6203.00
933.00	6305.00
934.00	6276.00
935.00	6216.00
936.00	6002.00
937.00	6212.00
938.00	6024.00
939.00	6035.00
940.00	5907.00
941.00	5893.00
942.00	5935.00
943.00	5946.00
944.00	5945.00
945.00	5980.00
946.00	5947.00
947.00	5940.00
948.00	5880.00
949.00	5840.00
950.00	5817.00
951.00	5815.00
952.00	5920.00
953.00	5865.00
954.00	5972.00
955.00	6140.00
956.00	5875.00
957.00	5809.00
958.00	5941.00
959.00	6038.00
960.00	6064.00
961.00	5964.00
962.00	6052.00
963.00	6064.00
964.00	5892.00
965.00	5980.00
966.00	6040.00
967.00	6108.00
968.00	6176.00
969.00	6160.00
970.00	6128.00
971.00	6146.00
972.00	6189.00
973.00	6181.00
974.00	6159.00
975.00	6151.00
976.00	6040.00
977.00	6266.00
978.00	6209.00
979.00	6137.00
980.00	6191.00
981.00	6042.00
982.00	6189.00
983.00	5948.00
984.00	6060.00
985.00	5953.00
986.00	6113.00
987.00	6085.00
988.00	6105.00
989.00	6099.00
990.00	6177.00
991.00	6013.00
992.00	6047.00
993.00	6184.00
994.00	5922.00
995.00	6077.00
996.00	6109.00
997.00	6091.00
998.00	6134.00
999.00	6112.00
1000.00	6150.00
1001.00	6143.00
1002.00	6009.00
1003.00	6286.00
1004.00	6239.00
1005.00	6173.00
1006.00	6155.00
1007.00	6277.00
1008.00	6386.00
1009.00	6392.00
1010.00	6482.00
1011.00	6655.00
1012.00	6777.00
1013.00	6796.00
1014.00	6549.00
1015.00	6751.00
1016.00	6797.00
1017.00	6722.00
1018.00	6861.00
1019.00	6640.00
1020.00	6625.00
1021.00	6692.00
1022.00	6575.00
1023.00	6561.00
1024.00	6446.00
1025.00	6421.00
1026.00	6386.00
1027.00	6271.00
1028.00	6230.00
1029.00	6136.00
1030.00	6314.00
1031.00	6243.00
1032.00	6026.00
1033.00	6042.00
1034.00	6061.00
1035.00	6198.00
1036.00	6144.00
1037.00	6167.00
1038.00	6058.00
1039.00	6041.00
1040.00	6122.00
1041.00	6084.00
1042.00	6136.00
1043.00	6191.00
1044.00	6259.00
1045.00	6228.00
1046.00	6289.00
1047.00	6181.00
1048.00	6202.00
1049.00	6325.00
1050.00	6400.00
1051.00	6254.00
1052.00	6255.00
1053.00	6273.00
1054.00	6433.00
1055.00	6334.00
1056.00	6355.00
1057.00	6397.00
1058.00	6395.00
1059.00	6340.00
1060.00	6399.00
1061.00	6431.00
1062.00	6379.00
1063.00	6369.00
1064.00	6293.00
1065.00	6656.00
1066.00	6492.00
1067.00	6345.00
1068.00	6254.00
1069.00	6423.00
1070.00	6456.00
1071.00	6509.00
1072.00	6429.00
1073.00	6537.00
1074.00	6489.00
1075.00	6696.00
1076.00	6645.00
1077.00	6497.00
1078.00	6536.00
1079.00	6567.00
1080.00	6505.00
1081.00	6570.00
1082.00	6533.00
1083.00	6701.00
1084.00	6544.00
1085.00	6730.00
1086.00	6596.00
1087.00	6587.00
1088.00	6497.00
1089.00	6642.00
1090.00	6686.00
1091.00	6770.00
1092.00	6690.00
1093.00	6625.00
1094.00	6714.00
1095.00	6748.00
1096.00	6676.00
1097.00	6702.00
1098.00	6762.00
1099.00	6880.00
1100.00	6854.00
1101.00	6690.00
1102.00	6846.00
1103.00	6898.00
1104.00	6763.00
1105.00	6754.00
1106.00	6787.00
1107.00	6781.00
1108.00	6890.00
1109.00	6835.00
1110.00	6898.00
1111.00	6720.00
1112.00	6948.00
1113.00	6665.00
1114.00	6840.00
1115.00	6721.00
1116.00	6819.00
1117.00	6791.00
1118.00	6703.00
1119.00	6891.00
1120.00	6757.00
1121.00	6672.00
1122.00	6776.00
1123.00	6728.00
1124.00	6804.00
1125.00	6821.00
1126.00	6681.00
1127.00	6770.00
1128.00	6623.00
1129.00	6700.00
1130.00	6815.00
1131.00	6740.00
1132.00	6710.00
1133.00	6496.00
1134.00	6702.00
1135.00	6675.00
1136.00	6649.00
1137.00	6552.00
1138.00	6623.00
1139.00	6644.00
1140.00	6708.00
1141.00	6758.00
1142.00	6429.00
1143.00	6631.00
1144.00	6718.00
1145.00	6718.00
1146.00	6578.00
1147.00	6679.00
1148.00	6657.00
1149.00	6589.00
1150.00	6591.00
1151.00	6556.00
1152.00	6635.00
1153.00	6683.00
1154.00	6453.00
1155.00	6573.00
1156.00	6585.00
1157.00	6505.00
1158.00	6663.00
1159.00	6615.00
1160.00	6675.00
1161.00	6583.00
1162.00	6483.00
1163.00	6590.00
1164.00	6509.00
1165.00	6518.00
1166.00	6720.00
1167.00	6584.00
1168.00	6573.00
1169.00	6445.00
1170.00	6672.00
1171.00	6663.00
1172.00	6623.00
1173.00	6560.00
1174.00	6725.00
1175.00	6616.00
1176.00	6645.00
1177.00	6627.00
1178.00	6683.00
1179.00	6613.00
1180.00	6907.00
1181.00	6600.00
1182.00	6654.00
1183.00	6618.00
1184.00	6790.00
1185.00	6597.00
1186.00	6714.00
1187.00	6701.00
1188.00	6728.00
1189.00	6756.00
1190.00	6693.00
1191.00	6728.00
1192.00	6791.00
1193.00	6758.00
1194.00	6688.00
1195.00	6599.00
1196.00	6753.00
1197.00	6795.00
1198.00	6793.00
1199.00	6760.00
1200.00	6818.00
1201.00	6858.00
1202.00	6648.00
1203.00	6779.00
1204.00	6878.00
1205.00	6783.00
1206.00	6929.00
1207.00	6961.00
1208.00	6932.00
1209.00	6863.00
1210.00	6980.00
1211.00	7106.00
1212.00	6992.00
1213.00	6921.00
1214.00	7139.00
1215.00	7094.00
1216.00	7229.00
1217.00	7196.00
1218.00	7159.00
1219.00	7015.00
1220.00	7177.00
1221.00	7323.00
1222.00	7142.00
1223.00	7187.00
1224.00	7221.00
1225.00	7167.00
1226.00	7194.00
1227.00	7253.00
1228.00	7314.00
1229.00	7206.00
1230.00	7152.00
1231.00	7291.00
1232.00	7324.00
1233.00	7390.00
1234.00	7256.00
1235.00	7488.00
1236.00	7195.00
1237.00	7284.00
1238.00	7404.00
1239.00	7240.00
1240.00	7189.00
1241.00	7240.00
1242.00	7055.00
1243.00	7034.00
1244.00	6927.00
1245.00	6960.00
1246.00	6960.00
1247.00	6841.00
1248.00	6933.00
1249.00	6843.00
1250.00	7177.00
1251.00	6888.00
1252.00	6866.00
1253.00	6889.00
1254.00	6743.00
1255.00	6919.00
1256.00	6807.00
1257.00	6745.00
1258.00	6652.00
1259.00	6798.00
1260.00	6852.00
1261.00	6757.00
1262.00	6796.00
1263.00	6829.00
1264.00	6801.00
1265.00	6802.00
1266.00	6827.00
1267.00	6729.00
1268.00	6783.00
1269.00	6765.00
1270.00	6851.00
1271.00	6778.00
1272.00	6824.00
1273.00	6943.00
1274.00	7005.00
1275.00	6993.00
1276.00	7068.00
1277.00	7143.00
1278.00	7266.00
1279.00	7184.00
1280.00	7234.00
1281.00	7501.00
1282.00	7412.00
1283.00	7514.00
1284.00	7566.00
1285.00	7913.00
1286.00	7743.00
1287.00	7958.00
1288.00	7915.00
1289.00	7855.00
1290.00	7953.00
1291.00	8185.00
1292.00	7906.00
1293.00	7992.00
1294.00	8022.00
1295.00	7869.00
1296.00	7825.00
1297.00	7707.00
1298.00	7859.00
1299.00	7590.00
1300.00	7354.00
1301.00	7258.00
1302.00	7286.00
1303.00	7218.00
1304.00	7095.00
1305.00	7116.00
1306.00	6873.00
1307.00	6886.00
1308.00	6780.00
1309.00	6809.00
1310.00	6696.00
1311.00	6708.00
1312.00	6511.00
1313.00	6685.00
1314.00	6593.00
1315.00	6704.00
1316.00	6595.00
1317.00	6466.00
1318.00	6497.00
1319.00	6561.00
1320.00	6635.00
1321.00	6567.00
1322.00	6660.00
1323.00	6522.00
1324.00	6595.00
1325.00	6505.00
1326.00	6587.00
1327.00	6572.00
1328.00	6608.00
1329.00	6477.00
1330.00	6551.00
1331.00	6619.00
1332.00	6484.00
1333.00	6677.00
1334.00	6450.00
1335.00	6594.00
1336.00	6509.00
1337.00	6598.00
1338.00	6514.00
1339.00	6516.00
1340.00	6583.00
1341.00	6532.00
1342.00	6583.00
1343.00	6598.00
1344.00	6660.00
1345.00	6664.00
1346.00	6800.00
1347.00	6801.00
1348.00	6733.00
1349.00	6857.00
1350.00	6768.00
1351.00	7011.00
1352.00	7162.00
1353.00	7385.00
1354.00	7599.00
1355.00	7612.00
1356.00	7731.00
1357.00	7747.00
1358.00	7935.00
1359.00	8080.00
1360.00	8001.00
1361.00	8303.00
1362.00	8245.00
1363.00	8481.00
1364.00	8394.00
1365.00	8321.00
1366.00	8251.00
1367.00	8058.00
1368.00	7957.00
1369.00	7908.00
1370.00	7678.00
1371.00	7782.00
1372.00	7423.00
1373.00	7098.00
1374.00	7126.00
1375.00	7061.00
1376.00	6891.00
1377.00	6882.00
1378.00	6526.00
1379.00	6498.00
1380.00	6465.00
1381.00	6364.00
1382.00	6280.00
1383.00	6234.00
1384.00	6220.00
1385.00	6089.00
1386.00	5966.00
1387.00	6255.00
1388.00	6109.00
1389.00	6082.00
1390.00	5988.00
1391.00	5894.00
1392.00	5972.00
1393.00	5896.00
1394.00	6005.00
1395.00	5957.00
1396.00	5941.00
1397.00	5702.00
1398.00	5903.00
1399.00	5906.00
1400.00	5825.00
1401.00	5811.00
1402.00	5958.00
1403.00	5989.00
1404.00	5925.00
1405.00	5790.00
1406.00	5742.00
1407.00	5816.00
1408.00	5915.00
1409.00	5745.00
1410.00	5945.00
1411.00	5923.00
1412.00	5813.00
1413.00	5857.00
1414.00	5761.00
1415.00	5955.00
1416.00	5833.00
1417.00	5724.00
1418.00	5759.00
1419.00	5896.00
1420.00	5781.00
1421.00	5908.00
1422.00	5811.00
1423.00	5891.00
1424.00	5736.00
1425.00	5817.00
1426.00	5884.00
1427.00	5968.00
1428.00	6008.00
1429.00	5933.00
1430.00	6009.00
1431.00	6036.00
1432.00	6017.00
1433.00	6143.00
1434.00	6069.00
1435.00	6169.00
1436.00	6188.00
1437.00	6050.00
1438.00	6066.00
1439.00	5994.00
1440.00	6241.00
1441.00	6144.00
1442.00	6131.00
1443.00	6215.00
1444.00	6156.00
1445.00	6070.00
1446.00	6056.00
1447.00	6093.00
1448.00	6145.00
1449.00	6057.00
1450.00	6065.00
1451.00	5866.00
1452.00	5692.00
1453.00	5748.00
1454.00	5595.00
1455.00	5842.00
1456.00	5824.00
1457.00	5646.00
1458.00	5633.00
1459.00	5646.00
1460.00	5627.00
1461.00	5633.00
1462.00	5772.00
1463.00	5641.00
1464.00	5620.00
1465.00	5653.00
1466.00	5696.00
1467.00	5610.00
1468.00	5464.00
1469.00	5565.00
1470.00	5650.00
1471.00	5589.00
1472.00	5440.00
1473.00	5567.00
1474.00	5545.00
1475.00	5387.00
1476.00	5695.00
1477.00	5571.00
1478.00	5456.00
1479.00	5480.00
1480.00	5598.00
1481.00	5527.00
1482.00	5515.00
1483.00	5421.00
1484.00	5546.00
1485.00	5410.00
1486.00	5457.00
1487.00	5465.00
1488.00	5433.00
1489.00	5536.00
1490.00	5725.00
1491.00	5337.00
1492.00	5297.00
1493.00	5589.00
1494.00	5531.00
1495.00	5395.00
1496.00	5507.00
1497.00	5560.00
1498.00	5635.00
1499.00	5484.00
1500.00	5722.00
1501.00	5770.00
1502.00	5677.00
1503.00	5747.00
1504.00	5763.00
1505.00	5824.00
1506.00	5829.00
1507.00	6008.00
1508.00	6105.00
1509.00	5975.00
1510.00	6221.00
1511.00	6253.00
1512.00	6361.00
1513.00	6339.00
1514.00	6467.00
1515.00	6628.00
1516.00	6470.00
1517.00	6590.00
1518.00	6526.00
1519.00	6681.00
1520.00	6767.00
1521.00	6711.00
1522.00	6568.00
1523.00	6616.00
1524.00	6683.00
1525.00	6625.00
1526.00	6546.00
1527.00	6543.00
1528.00	6590.00
1529.00	6330.00
1530.00	6474.00
1531.00	6289.00
1532.00	6250.00
1533.00	6192.00
1534.00	6250.00
1535.00	6152.00
1536.00	6149.00
1537.00	6132.00
1538.00	5979.00
1539.00	6073.00
1540.00	5968.00
1541.00	6191.00
1542.00	6106.00
1543.00	6149.00
1544.00	6135.00
1545.00	6159.00
1546.00	6208.00
1547.00	6136.00
1548.00	6245.00
1549.00	6316.00
1550.00	6346.00
1551.00	6308.00
1552.00	6552.00
1553.00	6487.00
1554.00	6558.00
1555.00	6771.00
1556.00	6783.00
1557.00	6848.00
1558.00	6905.00
1559.00	7045.00
1560.00	7117.00
1561.00	7274.00
1562.00	7230.00
1563.00	7540.00
1564.00	7517.00
1565.00	7730.00
1566.00	7665.00
1567.00	7972.00
1568.00	7989.00
1569.00	8178.00
1570.00	8438.00
1571.00	8393.00
1572.00	8499.00
1573.00	8453.00
1574.00	8751.00
1575.00	8989.00
1576.00	8897.00
1577.00	9060.00
1578.00	9120.00
1579.00	9156.00
1580.00	9224.00
1581.00	9464.00
1582.00	9446.00
1583.00	9318.00
1584.00	9434.00
1585.00	9510.00
1586.00	9604.00
1587.00	9618.00
1588.00	9686.00
1589.00	9660.00
1590.00	9598.00
1591.00	9584.00
1592.00	9507.00
1593.00	9642.00
1594.00	9505.00
1595.00	9434.00
1596.00	9412.00
1597.00	9335.00
1598.00	9294.00
1599.00	9308.00
1600.00	9154.00
1601.00	9080.00
1602.00	8878.00
1603.00	8768.00
1604.00	8573.00
1605.00	8318.00
1606.00	8515.00
1607.00	8223.00
1608.00	8018.00
1609.00	7860.00
1610.00	7831.00
1611.00	7662.00
1612.00	7729.00
1613.00	7691.00
1614.00	7199.00
1615.00	7288.00
1616.00	7049.00
1617.00	6959.00
1618.00	6756.00
1619.00	6616.00
1620.00	6537.00
1621.00	6545.00
1622.00	6478.00
1623.00	6209.00
1624.00	6162.00
1625.00	6080.00
1626.00	6006.00
1627.00	5863.00
1628.00	5754.00
1629.00	5683.00
1630.00	5586.00
1631.00	5528.00
1632.00	5435.00
1633.00	5316.00
1634.00	5299.00
1635.00	5279.00
1636.00	5221.00
1637.00	5059.00
1638.00	4944.00
1639.00	5076.00
1640.00	4952.00
1641.00	4948.00
1642.00	4939.00
1643.00	4909.00
1644.00	4797.00
1645.00	4656.00
1646.00	4657.00
1647.00	4742.00
1648.00	4731.00
1649.00	4637.00
1650.00	4583.00
1651.00	4663.00
1652.00	4704.00
1653.00	4656.00
1654.00	4610.00
1655.00	4675.00
1656.00	4683.00
1657.00	4808.00
1658.00	4699.00
1659.00	4945.00
1660.00	4894.00
1661.00	4976.00
1662.00	5093.00
1663.00	5148.00
1664.00	5410.00
1665.00	5321.00
1666.00	5617.00
1667.00	5855.00
1668.00	6087.00
1669.00	6274.00
1670.00	6516.00
1671.00	6654.00
1672.00	7002.00
1673.00	7253.00
1674.00	7386.00
1675.00	7635.00
1676.00	7924.00
1677.00	8057.00
1678.00	7998.00
1679.00	8193.00
1680.00	8437.00
1681.00	8340.00
1682.00	8659.00
1683.00	8375.00
1684.00	8443.00
1685.00	8301.00
1686.00	8197.00
1687.00	7992.00
1688.00	7783.00
1689.00	7587.00
1690.00	7350.00
1691.00	7054.00
1692.00	6754.00
1693.00	6391.00
1694.00	6208.00
1695.00	5987.00
1696.00	5490.00
1697.00	5408.00
1698.00	5167.00
1699.00	5033.00
1700.00	4762.00
1701.00	4382.00
1702.00	4365.00
1703.00	4407.00
1704.00	4201.00
1705.00	4112.00
1706.00	3949.00
1707.00	3789.00
1708.00	3801.00
1709.00	3863.00
1710.00	3621.00
1711.00	3774.00
1712.00	3669.00
1713.00	3687.00
1714.00	3656.00
1715.00	3563.00
1716.00	3580.00
1717.00	3642.00
1718.00	3597.00
1719.00	3558.00
1720.00	3564.00
1721.00	3489.00
1722.00	3564.00
1723.00	3469.00
1724.00	3593.00
1725.00	3402.00
1726.00	3503.00
1727.00	3385.00
1728.00	3490.00
1729.00	3612.00
1730.00	3529.00
1731.00	3523.00
1732.00	3433.00
1733.00	3482.00
1734.00	3478.00
1735.00	3531.00
1736.00	3534.00
1737.00	3526.00
1738.00	3567.00
1739.00	3542.00
1740.00	3553.00
1741.00	3552.00
1742.00	3554.00
1743.00	3557.00
1744.00	3616.00
1745.00	3621.00
1746.00	3709.00
1747.00	3555.00
1748.00	3559.00
1749.00	3495.00
1750.00	3504.00
1751.00	3627.00
1752.00	3634.00
1753.00	3619.00
1754.00	3641.00
1755.00	3481.00
1756.00	3723.00
1757.00	3675.00
1758.00	3739.00
1759.00	3512.00
1760.00	3647.00
1761.00	3686.00
1762.00	3740.00
1763.00	3614.00
1764.00	3739.00
1765.00	3628.00
1766.00	3693.00
1767.00	3633.00
1768.00	3718.00
1769.00	3736.00
1770.00	3647.00
1771.00	3585.00
1772.00	3727.00
1773.00	3561.00
1774.00	3633.00
1775.00	3577.00
1776.00	3603.00
1777.00	3620.00
1778.00	3594.00
1779.00	3539.00
1780.00	3547.00
1781.00	3610.00
1782.00	3645.00
1783.00	3537.00
1784.00	3418.00
1785.00	3411.00
1786.00	3388.00
1787.00	3330.00
1788.00	3414.00
1789.00	3353.00
1790.00	3294.00
1791.00	3367.00
1792.00	3225.00
1793.00	3211.00
1794.00	3223.00
1795.00	3222.00
1796.00	3235.00
1797.00	3193.00
1798.00	2985.00
1799.00	3069.00
1800.00	2945.00
1801.00	3101.00
1802.00	3030.00
1803.00	2859.00
1804.00	2863.00
1805.00	2918.00
1806.00	2832.00
1807.00	2792.00
1808.00	2702.00
1809.00	2814.00
1810.00	2829.00
1811.00	2705.00
1812.00	2636.00
1813.00	2712.00
1814.00	2560.00
1815.00	2612.00
1816.00	2587.00
1817.00	2495.00
1818.00	2468.00
1819.00	2531.00
1820.00	2443.00
1821.00	2485.00
1822.00	2450.00
1823.00	2344.00
1824.00	2368.00
1825.00	2283.00
1826.00	2369.00
1827.00	2328.00
1828.00	2301.00
1829.00	2327.00
1830.00	2296.00
1831.00	2202.00
1832.00	2241.00
1833.00	2181.00
1834.00	2258.00
1835.00	2134.00
1836.00	2195.00
1837.00	2122.00
1838.00	2182.00
1839.00	2086.00
1840.00	2054.00
1841.00	2090.00
1842.00	2059.00
1843.00	1982.00
1844.00	1985.00
1845.00	1915.00
1846.00	2003.00
1847.00	1951.00
1848.00	1919.00
1849.00	1954.00
1850.00	2000.00
1851.00	1931.00
1852.00	1935.00
1853.00	1897.00
1854.00	1873.00
1855.00	1887.00
1856.00	1858.00
1857.00	1899.00
1858.00	1831.00
1859.00	1935.00
1860.00	1823.00
1861.00	1861.00
1862.00	1817.00
1863.00	1862.00
1864.00	1767.00
1865.00	1877.00
1866.00	1817.00
1867.00	1767.00
1868.00	1760.00
1869.00	1896.00
1870.00	1840.00
1871.00	1831.00
1872.00	1946.00
1873.00	1931.00
1874.00	1784.00
1875.00	1887.00
1876.00	1963.00
1877.00	1911.00
1878.00	1974.00
1879.00	1997.00
1880.00	2068.00
1881.00	2120.00
1882.00	2150.00
1883.00	2106.00
1884.00	2156.00
1885.00	2133.00
1886.00	2215.00
1887.00	2231.00
1888.00	2212.00
1889.00	2292.00
1890.00	2188.00
1891.00	2225.00
1892.00	2220.00
1893.00	2115.00
1894.00	2158.00
1895.00	2106.00
1896.00	2038.00
1897.00	2042.00
1898.00	2063.00
1899.00	1887.00
1900.00	1963.00
1901.00	1767.00
1902.00	1854.00
1903.00	1806.00
1904.00	1727.00
1905.00	1666.00
1906.00	1700.00
1907.00	1595.00
1908.00	1633.00
1909.00	1565.00
1910.00	1555.00
1911.00	1527.00
1912.00	1522.00
1913.00	1526.00
1914.00	1488.00
1915.00	1471.00
1916.00	1550.00
1917.00	1565.00
1918.00	1500.00
1919.00	1489.00
1920.00	1435.00
1921.00	1478.00
1922.00	1467.00
1923.00	1467.00
1924.00	1378.00
1925.00	1406.00
1926.00	1448.00
1927.00	1439.00
1928.00	1416.00
1929.00	1424.00
1930.00	1362.00
1931.00	1348.00
1932.00	1331.00
1933.00	1314.00
1934.00	1324.00
1935.00	1250.00
1936.00	1210.00
1937.00	1287.00
1938.00	1248.00
1939.00	1310.00
1940.00	1224.00
1941.00	1217.00
1942.00	1245.00
1943.00	1230.00
1944.00	1244.00
1945.00	1214.00
1946.00	1181.00
1947.00	1135.00
1948.00	1139.00
1949.00	1191.00
1950.00	1143.00
1951.00	1148.00
1952.00	1193.00
1953.00	1161.00
1954.00	1157.00
1955.00	1148.00
1956.00	1137.00
1957.00	1116.00
1958.00	1142.00
1959.00	1127.00
1960.00	1051.00
1961.00	1121.00
1962.00	1076.00
1963.00	1130.00
1964.00	1099.00
1965.00	1072.00
1966.00	1113.00
1967.00	1061.00
1968.00	1079.00
1969.00	1061.00
1970.00	1066.00
1971.00	1081.00
1972.00	1060.00
1973.00	1047.00
1974.00	1025.00
1975.00	1033.00
1976.00	1024.00
1977.00	1067.00
1978.00	1063.00
1979.00	1043.00
1980.00	1008.00
1981.00	973.00
1982.00	1018.00
1983.00	985.00
1984.00	977.00
1985.00	962.00
1986.00	947.00
1987.00	1007.00
1988.00	971.00
1989.00	1011.00
1990.00	959.00
1991.00	968.00
1992.00	948.00
1993.00	959.00
1994.00	910.00
1995.00	946.00
1996.00	892.00
1997.00	961.00
1998.00	957.00
1999.00	889.00
2000.00	852.00
2001.00	936.00
2002.00	895.00
2003.00	931.00
2004.00	909.00
2005.00	889.00
2006.00	865.00
2007.00	896.00
2008.00	879.00
2009.00	860.00
2010.00	844.00
2011.00	880.00
2012.00	867.00
2013.00	846.00
2014.00	851.00
2015.00	839.00
2016.00	817.00
2017.00	803.00
2018.00	818.00
2019.00	840.00
2020.00	785.00
2021.00	828.00
2022.00	835.00
2023.00	788.00
2024.00	783.00
2025.00	763.00
2026.00	766.00
2027.00	761.00
2028.00	802.00
2029.00	787.00
2030.00	718.00
2031.00	755.00
2032.00	742.00
2033.00	766.00
2034.00	727.00
2035.00	758.00
2036.00	723.00
2037.00	764.00
2038.00	780.00
2039.00	704.00
2040.00	711.00
2041.00	719.00
2042.00	637.00
2043.00	733.00
2044.00	647.00
2045.00	655.00
2046.00	691.00
2047.00	633.00
2048.00	 0.00
