Date:	2023-09-18		
Time:	21:57		
Sample name:	Pellets		
Position:	1587.600011	mm	
Sample surface:	5.955482	cm	
Tube anode:	Mo		
Tube voltage:	30	kV	
Tube current:	50	mA	
Comments	not in position		
Gain	5.810000		
peaking_time	0.300000	m-sec	
trigger_threshold	30.000000	V	
mca_bin_width	2.000000	no:	
number_mca_channels	2048.000000	no:	
gap_time	0.100000	m-sec	
trigger_peaking_time	0.050000	m-sec	
livetime	17.165331	seconds	
runtime	20.000195	seconds	
input_count_rate	121268.332048	cps	
output_count_rate	104079.535225	cps	
triggers	2335858.000000	seconds	
events_in_run	2071186.000000	seconds	
channel	content		
 1.00	 0.00
 2.00	 0.00
 3.00	 0.00
 4.00	 0.00
 5.00	 0.00
 6.00	 0.00
 7.00	 0.00
 8.00	 0.00
 9.00	 0.00
10.00	 0.00
11.00	 0.00
12.00	 0.00
13.00	 0.00
14.00	 0.00
15.00	 0.00
16.00	 0.00
17.00	 0.00
18.00	 0.00
19.00	 0.00
20.00	 0.00
21.00	 0.00
22.00	 0.00
23.00	 0.00
24.00	 0.00
25.00	 0.00
26.00	 0.00
27.00	 0.00
28.00	 0.00
29.00	 0.00
30.00	 0.00
31.00	 1.00
32.00	 2.00
33.00	 5.00
34.00	 2.00
35.00	 8.00
36.00	 7.00
37.00	10.00
38.00	14.00
39.00	26.00
40.00	45.00
41.00	56.00
42.00	69.00
43.00	85.00
44.00	104.00
45.00	112.00
46.00	143.00
47.00	160.00
48.00	173.00
49.00	193.00
50.00	249.00
51.00	259.00
52.00	277.00
53.00	264.00
54.00	280.00
55.00	318.00
56.00	313.00
57.00	323.00
58.00	369.00
59.00	344.00
60.00	289.00
61.00	381.00
62.00	357.00
63.00	348.00
64.00	348.00
65.00	341.00
66.00	358.00
67.00	377.00
68.00	366.00
69.00	370.00
70.00	380.00
71.00	366.00
72.00	351.00
73.00	344.00
74.00	346.00
75.00	383.00
76.00	392.00
77.00	369.00
78.00	403.00
79.00	367.00
80.00	361.00
81.00	368.00
82.00	371.00
83.00	370.00
84.00	361.00
85.00	334.00
86.00	394.00
87.00	342.00
88.00	360.00
89.00	350.00
90.00	328.00
91.00	336.00
92.00	330.00
93.00	357.00
94.00	334.00
95.00	339.00
96.00	324.00
97.00	312.00
98.00	266.00
99.00	317.00
100.00	265.00
101.00	316.00
102.00	288.00
103.00	328.00
104.00	264.00
105.00	296.00
106.00	259.00
107.00	243.00
108.00	291.00
109.00	285.00
110.00	269.00
111.00	271.00
112.00	275.00
113.00	246.00
114.00	278.00
115.00	270.00
116.00	312.00
117.00	295.00
118.00	266.00
119.00	274.00
120.00	295.00
121.00	259.00
122.00	243.00
123.00	252.00
124.00	264.00
125.00	233.00
126.00	226.00
127.00	203.00
128.00	197.00
129.00	210.00
130.00	210.00
131.00	205.00
132.00	200.00
133.00	235.00
134.00	204.00
135.00	223.00
136.00	247.00
137.00	293.00
138.00	347.00
139.00	445.00
140.00	596.00
141.00	731.00
142.00	849.00
143.00	924.00
144.00	1027.00
145.00	1093.00
146.00	1084.00
147.00	925.00
148.00	792.00
149.00	685.00
150.00	620.00
151.00	573.00
152.00	565.00
153.00	489.00
154.00	427.00
155.00	403.00
156.00	391.00
157.00	379.00
158.00	443.00
159.00	549.00
160.00	935.00
161.00	1509.00
162.00	2410.00
163.00	3918.00
164.00	5936.00
165.00	8361.00
166.00	10948.00
167.00	13336.00
168.00	14765.00
169.00	15390.00
170.00	14878.00
171.00	13177.00
172.00	10954.00
173.00	8601.00
174.00	6478.00
175.00	4603.00
176.00	3133.00
177.00	2237.00
178.00	1638.00
179.00	1253.00
180.00	1000.00
181.00	798.00
182.00	674.00
183.00	563.00
184.00	505.00
185.00	428.00
186.00	414.00
187.00	412.00
188.00	398.00
189.00	434.00
190.00	391.00
191.00	404.00
192.00	402.00
193.00	328.00
194.00	334.00
195.00	303.00
196.00	325.00
197.00	271.00
198.00	290.00
199.00	260.00
200.00	224.00
201.00	197.00
202.00	207.00
203.00	183.00
204.00	195.00
205.00	158.00
206.00	164.00
207.00	200.00
208.00	176.00
209.00	197.00
210.00	176.00
211.00	184.00
212.00	182.00
213.00	195.00
214.00	189.00
215.00	216.00
216.00	199.00
217.00	219.00
218.00	229.00
219.00	250.00
220.00	270.00
221.00	277.00
222.00	281.00
223.00	310.00
224.00	333.00
225.00	283.00
226.00	295.00
227.00	272.00
228.00	222.00
229.00	234.00
230.00	198.00
231.00	185.00
232.00	204.00
233.00	191.00
234.00	184.00
235.00	170.00
236.00	169.00
237.00	180.00
238.00	164.00
239.00	157.00
240.00	189.00
241.00	175.00
242.00	158.00
243.00	157.00
244.00	173.00
245.00	170.00
246.00	165.00
247.00	170.00
248.00	169.00
249.00	167.00
250.00	183.00
251.00	169.00
252.00	166.00
253.00	213.00
254.00	169.00
255.00	199.00
256.00	161.00
257.00	181.00
258.00	172.00
259.00	170.00
260.00	196.00
261.00	207.00
262.00	219.00
263.00	219.00
264.00	277.00
265.00	291.00
266.00	285.00
267.00	274.00
268.00	279.00
269.00	283.00
270.00	276.00
271.00	234.00
272.00	242.00
273.00	226.00
274.00	235.00
275.00	258.00
276.00	252.00
277.00	325.00
278.00	431.00
279.00	535.00
280.00	688.00
281.00	964.00
282.00	1224.00
283.00	1466.00
284.00	1720.00
285.00	1934.00
286.00	2091.00
287.00	2076.00
288.00	1985.00
289.00	1953.00
290.00	1646.00
291.00	1378.00
292.00	1084.00
293.00	850.00
294.00	661.00
295.00	481.00
296.00	361.00
297.00	294.00
298.00	219.00
299.00	237.00
300.00	218.00
301.00	253.00
302.00	260.00
303.00	288.00
304.00	351.00
305.00	386.00
306.00	501.00
307.00	508.00
308.00	678.00
309.00	825.00
310.00	1093.00
311.00	1690.00
312.00	2360.00
313.00	3457.00
314.00	4746.00
315.00	6413.00
316.00	8568.00
317.00	10739.00
318.00	12788.00
319.00	14821.00
320.00	16057.00
321.00	16461.00
322.00	16296.00
323.00	15065.00
324.00	13508.00
325.00	11214.00
326.00	9163.00
327.00	6927.00
328.00	5086.00
329.00	3597.00
330.00	2342.00
331.00	1633.00
332.00	1019.00
333.00	677.00
334.00	496.00
335.00	416.00
336.00	439.00
337.00	421.00
338.00	489.00
339.00	693.00
340.00	814.00
341.00	1091.00
342.00	1411.00
343.00	1734.00
344.00	2109.00
345.00	2522.00
346.00	3111.00
347.00	3819.00
348.00	4556.00
349.00	5437.00
350.00	6734.00
351.00	8334.00
352.00	9849.00
353.00	11867.00
354.00	13825.00
355.00	15340.00
356.00	16916.00
357.00	17251.00
358.00	17364.00
359.00	16442.00
360.00	14748.00
361.00	12898.00
362.00	10713.00
363.00	8285.00
364.00	6345.00
365.00	4612.00
366.00	3313.00
367.00	2195.00
368.00	1407.00
369.00	942.00
370.00	636.00
371.00	488.00
372.00	398.00
373.00	349.00
374.00	310.00
375.00	347.00
376.00	345.00
377.00	437.00
378.00	520.00
379.00	602.00
380.00	813.00
381.00	997.00
382.00	1247.00
383.00	1558.00
384.00	1854.00
385.00	2272.00
386.00	2408.00
387.00	2568.00
388.00	2665.00
389.00	2792.00
390.00	2694.00
391.00	2523.00
392.00	2300.00
393.00	1946.00
394.00	1638.00
395.00	1346.00
396.00	1108.00
397.00	852.00
398.00	687.00
399.00	628.00
400.00	518.00
401.00	452.00
402.00	424.00
403.00	383.00
404.00	343.00
405.00	327.00
406.00	332.00
407.00	325.00
408.00	346.00
409.00	335.00
410.00	340.00
411.00	308.00
412.00	328.00
413.00	361.00
414.00	326.00
415.00	351.00
416.00	385.00
417.00	433.00
418.00	456.00
419.00	509.00
420.00	535.00
421.00	720.00
422.00	797.00
423.00	1025.00
424.00	1367.00
425.00	1907.00
426.00	2588.00
427.00	3495.00
428.00	4737.00
429.00	6229.00
430.00	7925.00
431.00	9840.00
432.00	11876.00
433.00	13652.00
434.00	15186.00
435.00	16215.00
436.00	16655.00
437.00	16541.00
438.00	15754.00
439.00	14370.00
440.00	12847.00
441.00	10873.00
442.00	9141.00
443.00	7477.00
444.00	6004.00
445.00	5084.00
446.00	4256.00
447.00	3663.00
448.00	3422.00
449.00	3164.00
450.00	2836.00
451.00	2691.00
452.00	2592.00
453.00	2239.00
454.00	2053.00
455.00	1955.00
456.00	1646.00
457.00	1477.00
458.00	1389.00
459.00	1201.00
460.00	1244.00
461.00	1332.00
462.00	1439.00
463.00	1414.00
464.00	1581.00
465.00	1757.00
466.00	2026.00
467.00	2231.00
468.00	2444.00
469.00	2680.00
470.00	2969.00
471.00	3277.00
472.00	3576.00
473.00	3953.00
474.00	4167.00
475.00	4463.00
476.00	4512.00
477.00	4595.00
478.00	4584.00
479.00	4373.00
480.00	3929.00
481.00	3687.00
482.00	3243.00
483.00	2892.00
484.00	2388.00
485.00	1986.00
486.00	1711.00
487.00	1460.00
488.00	1177.00
489.00	1103.00
490.00	997.00
491.00	979.00
492.00	919.00
493.00	922.00
494.00	875.00
495.00	912.00
496.00	985.00
497.00	1065.00
498.00	1056.00
499.00	1104.00
500.00	1200.00
501.00	1185.00
502.00	1172.00
503.00	1236.00
504.00	1320.00
505.00	1318.00
506.00	1374.00
507.00	1422.00
508.00	1464.00
509.00	1483.00
510.00	1596.00
511.00	1564.00
512.00	1597.00
513.00	1716.00
514.00	1788.00
515.00	1915.00
516.00	1999.00
517.00	2031.00
518.00	2190.00
519.00	2233.00
520.00	2346.00
521.00	2492.00
522.00	2619.00
523.00	2584.00
524.00	2602.00
525.00	2528.00
526.00	2534.00
527.00	2376.00
528.00	2385.00
529.00	2127.00
530.00	2052.00
531.00	1998.00
532.00	1853.00
533.00	1847.00
534.00	1875.00
535.00	1821.00
536.00	1861.00
537.00	1826.00
538.00	1828.00
539.00	1872.00
540.00	1865.00
541.00	1927.00
542.00	1949.00
543.00	1971.00
544.00	1957.00
545.00	2049.00
546.00	2025.00
547.00	2003.00
548.00	1936.00
549.00	2072.00
550.00	2167.00
551.00	2094.00
552.00	2182.00
553.00	2293.00
554.00	2492.00
555.00	2716.00
556.00	3173.00
557.00	3757.00
558.00	4567.00
559.00	5758.00
560.00	7312.00
561.00	9022.00
562.00	11142.00
563.00	13830.00
564.00	16545.00
565.00	18899.00
566.00	21878.00
567.00	24023.00
568.00	26009.00
569.00	26845.00
570.00	27315.00
571.00	26686.00
572.00	25534.00
573.00	23237.00
574.00	20735.00
575.00	18141.00
576.00	15280.00
577.00	12676.00
578.00	10096.00
579.00	8190.00
580.00	6395.00
581.00	5072.00
582.00	4065.00
583.00	3482.00
584.00	3017.00
585.00	2653.00
586.00	2455.00
587.00	2443.00
588.00	2424.00
589.00	2494.00
590.00	2705.00
591.00	2686.00
592.00	2700.00
593.00	2873.00
594.00	3072.00
595.00	3411.00
596.00	3669.00
597.00	4174.00
598.00	4921.00
599.00	5897.00
600.00	7567.00
601.00	10199.00
602.00	14191.00
603.00	19697.00
604.00	27833.00
605.00	39703.00
606.00	56159.00
607.00	78666.00
608.00	107258.00
609.00	142571.00
610.00	184199.00
611.00	233174.00
612.00	286830.00
613.00	339342.00
614.00	395370.00
615.00	443685.00
616.00	484511.00
617.00	514357.00
618.00	526261.00
619.00	525742.00
620.00	509574.00
621.00	476409.00
622.00	434637.00
623.00	383268.00
624.00	330290.00
625.00	274985.00
626.00	221772.00
627.00	175286.00
628.00	133474.00
629.00	100039.00
630.00	73345.00
631.00	52784.00
632.00	36672.00
633.00	26160.00
634.00	18120.00
635.00	12931.00
636.00	9550.00
637.00	6981.00
638.00	5719.00
639.00	4925.00
640.00	4361.00
641.00	3977.00
642.00	3723.00
643.00	3643.00
644.00	3497.00
645.00	3483.00
646.00	3515.00
647.00	3562.00
648.00	3611.00
649.00	3588.00
650.00	3732.00
651.00	3709.00
652.00	3878.00
653.00	3903.00
654.00	4005.00
655.00	4094.00
656.00	4233.00
657.00	4350.00
658.00	4629.00
659.00	4822.00
660.00	4974.00
661.00	5232.00
662.00	5700.00
663.00	6219.00
664.00	6940.00
665.00	7652.00
666.00	9019.00
667.00	10534.00
668.00	13009.00
669.00	15397.00
670.00	19424.00
671.00	23786.00
672.00	29559.00
673.00	35414.00
674.00	42263.00
675.00	50380.00
676.00	58007.00
677.00	65781.00
678.00	72283.00
679.00	77725.00
680.00	82258.00
681.00	83890.00
682.00	84226.00
683.00	81878.00
684.00	77721.00
685.00	71853.00
686.00	64467.00
687.00	56687.00
688.00	48548.00
689.00	40690.00
690.00	32929.00
691.00	26502.00
692.00	20882.00
693.00	16259.00
694.00	12616.00
695.00	9766.00
696.00	7732.00
697.00	6175.00
698.00	5014.00
699.00	4374.00
700.00	3812.00
701.00	3623.00
702.00	3493.00
703.00	3256.00
704.00	3194.00
705.00	3301.00
706.00	3408.00
707.00	3392.00
708.00	3423.00
709.00	3516.00
710.00	3705.00
711.00	3644.00
712.00	3938.00
713.00	4117.00
714.00	4324.00
715.00	4523.00
716.00	4686.00
717.00	4880.00
718.00	5143.00
719.00	5155.00
720.00	5332.00
721.00	5378.00
722.00	5267.00
723.00	5258.00
724.00	5265.00
725.00	5120.00
726.00	4894.00
727.00	4592.00
728.00	4555.00
729.00	4170.00
730.00	4014.00
731.00	3860.00
732.00	3752.00
733.00	3663.00
734.00	3466.00
735.00	3542.00
736.00	3410.00
737.00	3393.00
738.00	3208.00
739.00	3246.00
740.00	3350.00
741.00	3195.00
742.00	3200.00
743.00	3131.00
744.00	3197.00
745.00	3216.00
746.00	3174.00
747.00	3126.00
748.00	3145.00
749.00	3068.00
750.00	3051.00
751.00	3079.00
752.00	3115.00
753.00	3197.00
754.00	3238.00
755.00	3296.00
756.00	3232.00
757.00	3253.00
758.00	3464.00
759.00	3384.00
760.00	3596.00
761.00	3434.00
762.00	3621.00
763.00	3652.00
764.00	3822.00
765.00	3940.00
766.00	3991.00
767.00	4133.00
768.00	4338.00
769.00	4529.00
770.00	4716.00
771.00	4960.00
772.00	5063.00
773.00	5217.00
774.00	5434.00
775.00	5474.00
776.00	5608.00
777.00	5690.00
778.00	5706.00
779.00	5628.00
780.00	5706.00
781.00	5900.00
782.00	5758.00
783.00	5672.00
784.00	5548.00
785.00	5503.00
786.00	5545.00
787.00	5510.00
788.00	5351.00
789.00	5348.00
790.00	5222.00
791.00	5309.00
792.00	5450.00
793.00	5411.00
794.00	5422.00
795.00	5428.00
796.00	5424.00
797.00	5518.00
798.00	5560.00
799.00	5517.00
800.00	5392.00
801.00	5522.00
802.00	5602.00
803.00	5615.00
804.00	5586.00
805.00	5554.00
806.00	5636.00
807.00	5439.00
808.00	5627.00
809.00	5506.00
810.00	5579.00
811.00	5736.00
812.00	5563.00
813.00	5780.00
814.00	5581.00
815.00	5644.00
816.00	5539.00
817.00	5724.00
818.00	5870.00
819.00	5755.00
820.00	5996.00
821.00	6094.00
822.00	6473.00
823.00	6691.00
824.00	7323.00
825.00	7688.00
826.00	8118.00
827.00	8731.00
828.00	8888.00
829.00	9435.00
830.00	9873.00
831.00	10087.00
832.00	10382.00
833.00	10673.00
834.00	10665.00
835.00	10320.00
836.00	10076.00
837.00	9894.00
838.00	9423.00
839.00	9232.00
840.00	8554.00
841.00	7989.00
842.00	7561.00
843.00	7220.00
844.00	6898.00
845.00	6492.00
846.00	6360.00
847.00	6075.00
848.00	5936.00
849.00	5659.00
850.00	5762.00
851.00	5628.00
852.00	5632.00
853.00	5656.00
854.00	5659.00
855.00	5514.00
856.00	5607.00
857.00	5775.00
858.00	5811.00
859.00	5789.00
860.00	5772.00
861.00	5904.00
862.00	5763.00
863.00	5674.00
864.00	5721.00
865.00	5700.00
866.00	5856.00
867.00	5754.00
868.00	5804.00
869.00	5817.00
870.00	5941.00
871.00	5792.00
872.00	5730.00
873.00	5838.00
874.00	5815.00
875.00	6094.00
876.00	5979.00
877.00	5959.00
878.00	6158.00
879.00	6227.00
880.00	6406.00
881.00	6330.00
882.00	6319.00
883.00	6604.00
884.00	6530.00
885.00	6636.00
886.00	6646.00
887.00	6602.00
888.00	6818.00
889.00	7022.00
890.00	6936.00
891.00	6971.00
892.00	7084.00
893.00	6824.00
894.00	6839.00
895.00	6965.00
896.00	6942.00
897.00	6991.00
898.00	6751.00
899.00	6954.00
900.00	6829.00
901.00	6816.00
902.00	6911.00
903.00	6782.00
904.00	6869.00
905.00	6855.00
906.00	6883.00
907.00	7021.00
908.00	6948.00
909.00	6752.00
910.00	6828.00
911.00	7095.00
912.00	7041.00
913.00	7093.00
914.00	7260.00
915.00	7156.00
916.00	7311.00
917.00	7334.00
918.00	7428.00
919.00	7555.00
920.00	7637.00
921.00	7708.00
922.00	7681.00
923.00	7886.00
924.00	7704.00
925.00	7750.00
926.00	7828.00
927.00	7669.00
928.00	7835.00
929.00	7728.00
930.00	7611.00
931.00	7476.00
932.00	7643.00
933.00	7584.00
934.00	7518.00
935.00	7440.00
936.00	7257.00
937.00	7309.00
938.00	7209.00
939.00	7129.00
940.00	7091.00
941.00	7309.00
942.00	7107.00
943.00	7099.00
944.00	7045.00
945.00	6959.00
946.00	7133.00
947.00	7027.00
948.00	7151.00
949.00	7214.00
950.00	7206.00
951.00	7106.00
952.00	7081.00
953.00	7137.00
954.00	7134.00
955.00	7094.00
956.00	7106.00
957.00	7094.00
958.00	7217.00
959.00	7265.00
960.00	7204.00
961.00	7143.00
962.00	7063.00
963.00	7181.00
964.00	7205.00
965.00	7144.00
966.00	7141.00
967.00	7288.00
968.00	7206.00
969.00	6945.00
970.00	7123.00
971.00	7155.00
972.00	7269.00
973.00	7304.00
974.00	7009.00
975.00	7204.00
976.00	7051.00
977.00	7079.00
978.00	7098.00
979.00	7120.00
980.00	7160.00
981.00	7167.00
982.00	7317.00
983.00	7416.00
984.00	7158.00
985.00	7218.00
986.00	7110.00
987.00	7214.00
988.00	7463.00
989.00	7285.00
990.00	7279.00
991.00	7293.00
992.00	7288.00
993.00	7301.00
994.00	7252.00
995.00	7215.00
996.00	7331.00
997.00	7342.00
998.00	7418.00
999.00	7309.00
1000.00	7286.00
1001.00	7276.00
1002.00	7363.00
1003.00	7501.00
1004.00	7359.00
1005.00	7576.00
1006.00	7755.00
1007.00	7682.00
1008.00	7836.00
1009.00	7728.00
1010.00	8024.00
1011.00	8072.00
1012.00	8118.00
1013.00	8242.00
1014.00	8376.00
1015.00	8256.00
1016.00	8133.00
1017.00	8223.00
1018.00	8306.00
1019.00	8314.00
1020.00	8039.00
1021.00	7981.00
1022.00	7939.00
1023.00	8070.00
1024.00	7950.00
1025.00	7820.00
1026.00	7563.00
1027.00	7544.00
1028.00	7430.00
1029.00	7329.00
1030.00	7295.00
1031.00	7365.00
1032.00	7458.00
1033.00	7327.00
1034.00	7018.00
1035.00	7452.00
1036.00	7241.00
1037.00	7096.00
1038.00	7198.00
1039.00	7132.00
1040.00	7230.00
1041.00	7128.00
1042.00	7318.00
1043.00	7347.00
1044.00	7262.00
1045.00	7390.00
1046.00	7414.00
1047.00	7326.00
1048.00	7246.00
1049.00	7298.00
1050.00	7182.00
1051.00	7508.00
1052.00	7474.00
1053.00	7387.00
1054.00	7424.00
1055.00	7673.00
1056.00	7320.00
1057.00	7424.00
1058.00	7499.00
1059.00	7725.00
1060.00	7474.00
1061.00	7540.00
1062.00	7652.00
1063.00	7572.00
1064.00	7525.00
1065.00	7437.00
1066.00	7441.00
1067.00	7498.00
1068.00	7574.00
1069.00	7628.00
1070.00	7591.00
1071.00	7542.00
1072.00	7643.00
1073.00	7667.00
1074.00	7796.00
1075.00	7620.00
1076.00	7808.00
1077.00	7694.00
1078.00	7670.00
1079.00	7664.00
1080.00	7813.00
1081.00	7717.00
1082.00	7815.00
1083.00	7886.00
1084.00	7679.00
1085.00	7719.00
1086.00	7924.00
1087.00	7922.00
1088.00	7852.00
1089.00	7704.00
1090.00	7759.00
1091.00	7918.00
1092.00	7799.00
1093.00	8057.00
1094.00	7791.00
1095.00	7886.00
1096.00	7928.00
1097.00	7943.00
1098.00	7880.00
1099.00	7806.00
1100.00	7990.00
1101.00	7802.00
1102.00	7827.00
1103.00	7831.00
1104.00	7961.00
1105.00	7869.00
1106.00	7926.00
1107.00	8052.00
1108.00	8017.00
1109.00	7964.00
1110.00	8022.00
1111.00	7932.00
1112.00	7856.00
1113.00	7816.00
1114.00	7905.00
1115.00	8051.00
1116.00	7959.00
1117.00	7964.00
1118.00	8095.00
1119.00	7884.00
1120.00	7887.00
1121.00	7988.00
1122.00	7976.00
1123.00	7923.00
1124.00	7772.00
1125.00	7875.00
1126.00	7903.00
1127.00	7938.00
1128.00	7733.00
1129.00	8048.00
1130.00	7885.00
1131.00	7790.00
1132.00	7872.00
1133.00	7798.00
1134.00	7949.00
1135.00	8010.00
1136.00	7884.00
1137.00	8050.00
1138.00	7821.00
1139.00	7992.00
1140.00	7878.00
1141.00	8013.00
1142.00	8134.00
1143.00	8244.00
1144.00	8082.00
1145.00	8011.00
1146.00	8055.00
1147.00	8042.00
1148.00	8102.00
1149.00	8070.00
1150.00	8222.00
1151.00	8045.00
1152.00	8109.00
1153.00	7950.00
1154.00	7683.00
1155.00	7884.00
1156.00	7776.00
1157.00	7714.00
1158.00	7864.00
1159.00	7870.00
1160.00	7537.00
1161.00	7618.00
1162.00	7824.00
1163.00	7709.00
1164.00	7705.00
1165.00	7905.00
1166.00	7671.00
1167.00	7888.00
1168.00	7632.00
1169.00	7724.00
1170.00	7905.00
1171.00	7903.00
1172.00	7713.00
1173.00	7723.00
1174.00	7886.00
1175.00	7809.00
1176.00	7818.00
1177.00	8045.00
1178.00	7849.00
1179.00	8005.00
1180.00	7916.00
1181.00	7846.00
1182.00	7859.00
1183.00	7851.00
1184.00	7982.00
1185.00	7969.00
1186.00	7788.00
1187.00	8052.00
1188.00	7790.00
1189.00	7905.00
1190.00	7912.00
1191.00	7933.00
1192.00	7946.00
1193.00	7878.00
1194.00	7820.00
1195.00	7924.00
1196.00	8046.00
1197.00	8061.00
1198.00	7855.00
1199.00	7988.00
1200.00	7957.00
1201.00	7883.00
1202.00	7900.00
1203.00	7956.00
1204.00	7990.00
1205.00	7945.00
1206.00	7978.00
1207.00	8096.00
1208.00	8112.00
1209.00	8246.00
1210.00	8255.00
1211.00	8205.00
1212.00	8117.00
1213.00	8581.00
1214.00	8320.00
1215.00	8503.00
1216.00	8636.00
1217.00	8508.00
1218.00	8547.00
1219.00	8554.00
1220.00	8533.00
1221.00	8641.00
1222.00	8670.00
1223.00	8787.00
1224.00	8784.00
1225.00	8738.00
1226.00	8816.00
1227.00	8898.00
1228.00	9011.00
1229.00	9144.00
1230.00	9137.00
1231.00	9106.00
1232.00	8998.00
1233.00	9107.00
1234.00	9037.00
1235.00	9016.00
1236.00	9026.00
1237.00	9197.00
1238.00	9016.00
1239.00	9054.00
1240.00	8703.00
1241.00	8718.00
1242.00	8643.00
1243.00	8558.00
1244.00	8467.00
1245.00	8348.00
1246.00	8353.00
1247.00	8191.00
1248.00	8236.00
1249.00	8386.00
1250.00	8229.00
1251.00	8026.00
1252.00	8003.00
1253.00	7940.00
1254.00	8023.00
1255.00	7916.00
1256.00	7997.00
1257.00	8084.00
1258.00	8090.00
1259.00	8090.00
1260.00	7972.00
1261.00	8045.00
1262.00	7938.00
1263.00	7709.00
1264.00	7917.00
1265.00	7898.00
1266.00	8047.00
1267.00	7910.00
1268.00	8122.00
1269.00	8101.00
1270.00	8083.00
1271.00	8186.00
1272.00	8089.00
1273.00	8240.00
1274.00	8325.00
1275.00	8240.00
1276.00	8257.00
1277.00	8525.00
1278.00	8606.00
1279.00	8479.00
1280.00	8701.00
1281.00	8813.00
1282.00	9031.00
1283.00	9014.00
1284.00	9150.00
1285.00	9175.00
1286.00	9451.00
1287.00	9546.00
1288.00	9554.00
1289.00	9721.00
1290.00	9508.00
1291.00	9693.00
1292.00	9789.00
1293.00	9581.00
1294.00	9417.00
1295.00	9531.00
1296.00	9403.00
1297.00	9161.00
1298.00	9097.00
1299.00	8894.00
1300.00	8917.00
1301.00	8549.00
1302.00	8621.00
1303.00	8319.00
1304.00	8506.00
1305.00	8445.00
1306.00	8245.00
1307.00	8091.00
1308.00	8083.00
1309.00	7886.00
1310.00	8002.00
1311.00	7850.00
1312.00	7947.00
1313.00	7758.00
1314.00	7722.00
1315.00	7779.00
1316.00	7760.00
1317.00	7768.00
1318.00	7854.00
1319.00	7748.00
1320.00	7777.00
1321.00	7743.00
1322.00	7666.00
1323.00	7796.00
1324.00	7642.00
1325.00	7721.00
1326.00	7614.00
1327.00	7620.00
1328.00	7666.00
1329.00	7721.00
1330.00	7630.00
1331.00	7621.00
1332.00	7727.00
1333.00	7724.00
1334.00	7710.00
1335.00	7557.00
1336.00	7675.00
1337.00	7506.00
1338.00	7523.00
1339.00	7606.00
1340.00	7697.00
1341.00	7733.00
1342.00	7742.00
1343.00	7798.00
1344.00	7649.00
1345.00	7684.00
1346.00	7760.00
1347.00	7784.00
1348.00	7910.00
1349.00	7989.00
1350.00	7866.00
1351.00	8055.00
1352.00	8228.00
1353.00	8273.00
1354.00	8367.00
1355.00	8564.00
1356.00	8314.00
1357.00	8596.00
1358.00	8614.00
1359.00	8708.00
1360.00	8761.00
1361.00	8826.00
1362.00	8955.00
1363.00	8913.00
1364.00	8907.00
1365.00	8970.00
1366.00	8882.00
1367.00	8922.00
1368.00	8650.00
1369.00	8647.00
1370.00	8501.00
1371.00	8385.00
1372.00	8235.00
1373.00	8294.00
1374.00	7979.00
1375.00	7833.00
1376.00	7585.00
1377.00	7693.00
1378.00	7636.00
1379.00	7624.00
1380.00	7286.00
1381.00	7352.00
1382.00	7201.00
1383.00	7356.00
1384.00	7401.00
1385.00	7023.00
1386.00	7101.00
1387.00	7084.00
1388.00	6972.00
1389.00	7107.00
1390.00	6953.00
1391.00	6874.00
1392.00	7033.00
1393.00	6992.00
1394.00	6960.00
1395.00	6973.00
1396.00	7020.00
1397.00	6899.00
1398.00	6892.00
1399.00	6903.00
1400.00	6928.00
1401.00	7001.00
1402.00	6809.00
1403.00	6726.00
1404.00	6950.00
1405.00	6865.00
1406.00	6799.00
1407.00	6867.00
1408.00	6880.00
1409.00	6887.00
1410.00	6609.00
1411.00	6687.00
1412.00	6750.00
1413.00	6830.00
1414.00	6774.00
1415.00	6668.00
1416.00	6913.00
1417.00	6804.00
1418.00	6702.00
1419.00	6817.00
1420.00	6687.00
1421.00	6863.00
1422.00	6866.00
1423.00	6883.00
1424.00	6647.00
1425.00	6861.00
1426.00	6938.00
1427.00	6700.00
1428.00	6973.00
1429.00	6962.00
1430.00	7129.00
1431.00	7009.00
1432.00	7119.00
1433.00	6880.00
1434.00	7085.00
1435.00	7248.00
1436.00	7257.00
1437.00	7067.00
1438.00	7076.00
1439.00	7353.00
1440.00	7220.00
1441.00	7314.00
1442.00	7304.00
1443.00	7204.00
1444.00	7185.00
1445.00	7142.00
1446.00	7158.00
1447.00	7213.00
1448.00	7093.00
1449.00	6951.00
1450.00	7024.00
1451.00	6834.00
1452.00	6910.00
1453.00	6727.00
1454.00	6986.00
1455.00	6703.00
1456.00	6790.00
1457.00	6672.00
1458.00	6680.00
1459.00	6662.00
1460.00	6624.00
1461.00	6800.00
1462.00	6690.00
1463.00	6496.00
1464.00	6610.00
1465.00	6555.00
1466.00	6561.00
1467.00	6421.00
1468.00	6628.00
1469.00	6605.00
1470.00	6585.00
1471.00	6502.00
1472.00	6596.00
1473.00	6388.00
1474.00	6339.00
1475.00	6471.00
1476.00	6496.00
1477.00	6456.00
1478.00	6417.00
1479.00	6474.00
1480.00	6426.00
1481.00	6275.00
1482.00	6408.00
1483.00	6311.00
1484.00	6493.00
1485.00	6324.00
1486.00	6455.00
1487.00	6403.00
1488.00	6436.00
1489.00	6490.00
1490.00	6357.00
1491.00	6424.00
1492.00	6472.00
1493.00	6443.00
1494.00	6280.00
1495.00	6402.00
1496.00	6458.00
1497.00	6428.00
1498.00	6601.00
1499.00	6572.00
1500.00	6687.00
1501.00	6624.00
1502.00	6734.00
1503.00	6959.00
1504.00	6718.00
1505.00	6871.00
1506.00	6879.00
1507.00	6954.00
1508.00	6987.00
1509.00	7045.00
1510.00	7160.00
1511.00	7395.00
1512.00	7374.00
1513.00	7335.00
1514.00	7505.00
1515.00	7588.00
1516.00	7501.00
1517.00	7704.00
1518.00	7668.00
1519.00	7762.00
1520.00	7816.00
1521.00	7770.00
1522.00	7778.00
1523.00	7616.00
1524.00	7661.00
1525.00	7699.00
1526.00	7426.00
1527.00	7498.00
1528.00	7517.00
1529.00	7393.00
1530.00	7415.00
1531.00	7292.00
1532.00	7216.00
1533.00	7193.00
1534.00	7150.00
1535.00	7099.00
1536.00	6979.00
1537.00	7077.00
1538.00	7115.00
1539.00	7035.00
1540.00	6936.00
1541.00	7067.00
1542.00	7186.00
1543.00	7072.00
1544.00	7201.00
1545.00	7244.00
1546.00	7183.00
1547.00	7333.00
1548.00	7107.00
1549.00	7463.00
1550.00	7510.00
1551.00	7415.00
1552.00	7724.00
1553.00	7711.00
1554.00	7831.00
1555.00	7954.00
1556.00	7984.00
1557.00	8210.00
1558.00	8160.00
1559.00	8279.00
1560.00	8469.00
1561.00	8363.00
1562.00	8587.00
1563.00	8650.00
1564.00	9031.00
1565.00	9036.00
1566.00	9262.00
1567.00	9311.00
1568.00	9553.00
1569.00	9489.00
1570.00	9699.00
1571.00	9905.00
1572.00	10027.00
1573.00	10033.00
1574.00	10245.00
1575.00	10427.00
1576.00	10618.00
1577.00	10666.00
1578.00	10894.00
1579.00	10767.00
1580.00	11132.00
1581.00	11205.00
1582.00	11091.00
1583.00	11305.00
1584.00	11314.00
1585.00	11484.00
1586.00	11312.00
1587.00	11351.00
1588.00	11366.00
1589.00	11499.00
1590.00	11471.00
1591.00	11332.00
1592.00	11488.00
1593.00	11176.00
1594.00	11208.00
1595.00	11072.00
1596.00	10971.00
1597.00	11128.00
1598.00	10817.00
1599.00	10965.00
1600.00	10568.00
1601.00	10533.00
1602.00	10586.00
1603.00	10469.00
1604.00	10176.00
1605.00	10145.00
1606.00	9773.00
1607.00	9951.00
1608.00	9762.00
1609.00	9422.00
1610.00	9150.00
1611.00	9036.00
1612.00	9029.00
1613.00	8692.00
1614.00	8486.00
1615.00	8573.00
1616.00	8227.00
1617.00	7983.00
1618.00	8006.00
1619.00	7782.00
1620.00	7550.00
1621.00	7574.00
1622.00	7579.00
1623.00	7306.00
1624.00	7263.00
1625.00	7257.00
1626.00	6936.00
1627.00	7007.00
1628.00	6814.00
1629.00	6666.00
1630.00	6558.00
1631.00	6422.00
1632.00	6443.00
1633.00	6369.00
1634.00	6297.00
1635.00	6139.00
1636.00	6021.00
1637.00	6049.00
1638.00	5900.00
1639.00	5881.00
1640.00	5822.00
1641.00	5718.00
1642.00	5723.00
1643.00	5685.00
1644.00	5600.00
1645.00	5549.00
1646.00	5555.00
1647.00	5387.00
1648.00	5386.00
1649.00	5430.00
1650.00	5392.00
1651.00	5390.00
1652.00	5303.00
1653.00	5440.00
1654.00	5283.00
1655.00	5379.00
1656.00	5328.00
1657.00	5434.00
1658.00	5548.00
1659.00	5480.00
1660.00	5675.00
1661.00	5738.00
1662.00	5732.00
1663.00	6029.00
1664.00	6165.00
1665.00	6200.00
1666.00	6373.00
1667.00	6661.00
1668.00	7042.00
1669.00	7248.00
1670.00	7399.00
1671.00	7710.00
1672.00	7870.00
1673.00	8110.00
1674.00	8331.00
1675.00	8717.00
1676.00	8905.00
1677.00	9196.00
1678.00	9268.00
1679.00	9275.00
1680.00	9433.00
1681.00	9627.00
1682.00	9705.00
1683.00	9379.00
1684.00	9651.00
1685.00	9428.00
1686.00	9223.00
1687.00	8990.00
1688.00	8799.00
1689.00	8600.00
1690.00	8381.00
1691.00	7999.00
1692.00	7648.00
1693.00	7398.00
1694.00	6978.00
1695.00	6626.00
1696.00	6473.00
1697.00	6159.00
1698.00	5779.00
1699.00	5722.00
1700.00	5463.00
1701.00	5206.00
1702.00	5059.00
1703.00	4937.00
1704.00	4743.00
1705.00	4725.00
1706.00	4595.00
1707.00	4566.00
1708.00	4512.00
1709.00	4445.00
1710.00	4390.00
1711.00	4276.00
1712.00	4204.00
1713.00	4266.00
1714.00	4124.00
1715.00	4204.00
1716.00	4012.00
1717.00	4163.00
1718.00	4129.00
1719.00	4193.00
1720.00	4166.00
1721.00	4147.00
1722.00	3938.00
1723.00	4241.00
1724.00	4114.00
1725.00	4032.00
1726.00	3970.00
1727.00	4183.00
1728.00	4130.00
1729.00	4062.00
1730.00	4123.00
1731.00	4138.00
1732.00	4048.00
1733.00	4056.00
1734.00	4259.00
1735.00	4215.00
1736.00	4079.00
1737.00	4072.00
1738.00	4075.00
1739.00	4160.00
1740.00	4058.00
1741.00	4086.00
1742.00	4198.00
1743.00	4108.00
1744.00	4175.00
1745.00	4115.00
1746.00	4177.00
1747.00	4117.00
1748.00	4135.00
1749.00	4081.00
1750.00	4177.00
1751.00	4201.00
1752.00	4190.00
1753.00	4182.00
1754.00	4268.00
1755.00	4300.00
1756.00	4357.00
1757.00	4273.00
1758.00	4237.00
1759.00	4275.00
1760.00	4309.00
1761.00	4343.00
1762.00	4297.00
1763.00	4230.00
1764.00	4262.00
1765.00	4238.00
1766.00	4274.00
1767.00	4391.00
1768.00	4307.00
1769.00	4350.00
1770.00	4379.00
1771.00	4353.00
1772.00	4392.00
1773.00	4243.00
1774.00	4176.00
1775.00	4337.00
1776.00	4202.00
1777.00	4243.00
1778.00	4268.00
1779.00	4229.00
1780.00	4174.00
1781.00	4199.00
1782.00	4143.00
1783.00	4110.00
1784.00	4132.00
1785.00	4059.00
1786.00	4012.00
1787.00	3888.00
1788.00	3978.00
1789.00	4006.00
1790.00	3861.00
1791.00	3750.00
1792.00	3809.00
1793.00	3828.00
1794.00	3673.00
1795.00	3688.00
1796.00	3637.00
1797.00	3664.00
1798.00	3624.00
1799.00	3557.00
1800.00	3511.00
1801.00	3487.00
1802.00	3488.00
1803.00	3505.00
1804.00	3240.00
1805.00	3452.00
1806.00	3293.00
1807.00	3226.00
1808.00	3137.00
1809.00	3187.00
1810.00	3153.00
1811.00	3167.00
1812.00	3102.00
1813.00	3005.00
1814.00	3118.00
1815.00	3064.00
1816.00	2992.00
1817.00	2977.00
1818.00	2962.00
1819.00	2884.00
1820.00	2913.00
1821.00	2721.00
1822.00	2752.00
1823.00	2760.00
1824.00	2668.00
1825.00	2624.00
1826.00	2759.00
1827.00	2668.00
1828.00	2727.00
1829.00	2659.00
1830.00	2687.00
1831.00	2584.00
1832.00	2605.00
1833.00	2568.00
1834.00	2580.00
1835.00	2566.00
1836.00	2540.00
1837.00	2468.00
1838.00	2521.00
1839.00	2360.00
1840.00	2392.00
1841.00	2369.00
1842.00	2354.00
1843.00	2415.00
1844.00	2365.00
1845.00	2316.00
1846.00	2295.00
1847.00	2330.00
1848.00	2314.00
1849.00	2268.00
1850.00	2231.00
1851.00	2239.00
1852.00	2262.00
1853.00	2168.00
1854.00	2233.00
1855.00	2199.00
1856.00	2188.00
1857.00	2252.00
1858.00	2157.00
1859.00	2203.00
1860.00	2165.00
1861.00	2123.00
1862.00	2146.00
1863.00	2155.00
1864.00	2098.00
1865.00	2138.00
1866.00	2178.00
1867.00	2140.00
1868.00	2092.00
1869.00	2042.00
1870.00	2096.00
1871.00	2065.00
1872.00	2142.00
1873.00	2133.00
1874.00	2062.00
1875.00	2157.00
1876.00	2102.00
1877.00	2185.00
1878.00	2221.00
1879.00	2343.00
1880.00	2351.00
1881.00	2372.00
1882.00	2384.00
1883.00	2393.00
1884.00	2457.00
1885.00	2532.00
1886.00	2527.00
1887.00	2540.00
1888.00	2499.00
1889.00	2545.00
1890.00	2518.00
1891.00	2572.00
1892.00	2457.00
1893.00	2524.00
1894.00	2444.00
1895.00	2364.00
1896.00	2283.00
1897.00	2331.00
1898.00	2307.00
1899.00	2229.00
1900.00	2141.00
1901.00	2119.00
1902.00	2073.00
1903.00	1966.00
1904.00	1959.00
1905.00	2000.00
1906.00	1974.00
1907.00	1933.00
1908.00	1869.00
1909.00	1869.00
1910.00	1805.00
1911.00	1839.00
1912.00	1753.00
1913.00	1771.00
1914.00	1740.00
1915.00	1724.00
1916.00	1704.00
1917.00	1769.00
1918.00	1801.00
1919.00	1772.00
1920.00	1797.00
1921.00	1727.00
1922.00	1694.00
1923.00	1724.00
1924.00	1668.00
1925.00	1643.00
1926.00	1606.00
1927.00	1632.00
1928.00	1653.00
1929.00	1597.00
1930.00	1648.00
1931.00	1569.00
1932.00	1635.00
1933.00	1556.00
1934.00	1520.00
1935.00	1480.00
1936.00	1453.00
1937.00	1406.00
1938.00	1523.00
1939.00	1424.00
1940.00	1370.00
1941.00	1449.00
1942.00	1420.00
1943.00	1402.00
1944.00	1451.00
1945.00	1363.00
1946.00	1385.00
1947.00	1317.00
1948.00	1331.00
1949.00	1334.00
1950.00	1349.00
1951.00	1339.00
1952.00	1399.00
1953.00	1355.00
1954.00	1301.00
1955.00	1312.00
1956.00	1341.00
1957.00	1233.00
1958.00	1258.00
1959.00	1253.00
1960.00	1341.00
1961.00	1308.00
1962.00	1248.00
1963.00	1286.00
1964.00	1293.00
1965.00	1304.00
1966.00	1220.00
1967.00	1284.00
1968.00	1244.00
1969.00	1294.00
1970.00	1189.00
1971.00	1278.00
1972.00	1218.00
1973.00	1197.00
1974.00	1205.00
1975.00	1201.00
1976.00	1186.00
1977.00	1234.00
1978.00	1198.00
1979.00	1197.00
1980.00	1180.00
1981.00	1234.00
1982.00	1147.00
1983.00	1095.00
1984.00	1218.00
1985.00	1146.00
1986.00	1124.00
1987.00	1076.00
1988.00	1183.00
1989.00	1105.00
1990.00	1130.00
1991.00	1129.00
1992.00	1035.00
1993.00	1132.00
1994.00	1143.00
1995.00	1121.00
1996.00	1062.00
1997.00	1090.00
1998.00	1029.00
1999.00	1089.00
2000.00	1148.00
2001.00	1067.00
2002.00	1054.00
2003.00	1064.00
2004.00	1017.00
2005.00	1039.00
2006.00	1072.00
2007.00	1099.00
2008.00	983.00
2009.00	1015.00
2010.00	995.00
2011.00	1014.00
2012.00	922.00
2013.00	996.00
2014.00	964.00
2015.00	993.00
2016.00	922.00
2017.00	949.00
2018.00	935.00
2019.00	949.00
2020.00	964.00
2021.00	925.00
2022.00	1012.00
2023.00	893.00
2024.00	940.00
2025.00	933.00
2026.00	934.00
2027.00	942.00
2028.00	846.00
2029.00	862.00
2030.00	843.00
2031.00	870.00
2032.00	901.00
2033.00	896.00
2034.00	842.00
2035.00	882.00
2036.00	831.00
2037.00	868.00
2038.00	808.00
2039.00	859.00
2040.00	842.00
2041.00	779.00
2042.00	803.00
2043.00	757.00
2044.00	766.00
2045.00	797.00
2046.00	798.00
2047.00	787.00
2048.00	 0.00
