Date:	2023-09-20		
Time:	17:41		
Sample name:	Pellets		
Position:	23.600011	mm	
Sample surface:	5.884816	cm	
Tube anode:	Mo		
Tube voltage:	30	kV	
Tube current:	50	mA	
Comments	not in position		
Gain	5.810000		
peaking_time	0.300000	m-sec	
trigger_threshold	30.000000	V	
mca_bin_width	2.000000	no:	
number_mca_channels	2048.000000	no:	
gap_time	0.100000	m-sec	
trigger_peaking_time	0.050000	m-sec	
livetime	17.379182	seconds	
runtime	20.000099	seconds	
input_count_rate	117999.452595	cps	
output_count_rate	102536.192446	cps	
triggers	2282365.000000	seconds	
events_in_run	2042673.000000	seconds	
channel	content		
 1.00	 0.00
 2.00	 0.00
 3.00	 0.00
 4.00	 0.00
 5.00	 0.00
 6.00	 0.00
 7.00	 0.00
 8.00	 0.00
 9.00	 0.00
10.00	 0.00
11.00	 0.00
12.00	 0.00
13.00	 0.00
14.00	 0.00
15.00	 0.00
16.00	 0.00
17.00	 0.00
18.00	 0.00
19.00	 0.00
20.00	 0.00
21.00	 0.00
22.00	 0.00
23.00	 0.00
24.00	 0.00
25.00	 0.00
26.00	 0.00
27.00	 0.00
28.00	 0.00
29.00	 0.00
30.00	 0.00
31.00	 1.00
32.00	 1.00
33.00	 1.00
34.00	 6.00
35.00	 6.00
36.00	 4.00
37.00	10.00
38.00	19.00
39.00	20.00
40.00	40.00
41.00	39.00
42.00	71.00
43.00	72.00
44.00	95.00
45.00	116.00
46.00	114.00
47.00	151.00
48.00	169.00
49.00	177.00
50.00	209.00
51.00	196.00
52.00	246.00
53.00	251.00
54.00	260.00
55.00	270.00
56.00	285.00
57.00	266.00
58.00	320.00
59.00	328.00
60.00	281.00
61.00	301.00
62.00	313.00
63.00	347.00
64.00	309.00
65.00	350.00
66.00	344.00
67.00	315.00
68.00	318.00
69.00	311.00
70.00	365.00
71.00	397.00
72.00	345.00
73.00	343.00
74.00	333.00
75.00	323.00
76.00	342.00
77.00	347.00
78.00	315.00
79.00	325.00
80.00	334.00
81.00	378.00
82.00	312.00
83.00	317.00
84.00	325.00
85.00	327.00
86.00	332.00
87.00	308.00
88.00	322.00
89.00	296.00
90.00	288.00
91.00	313.00
92.00	304.00
93.00	304.00
94.00	307.00
95.00	321.00
96.00	320.00
97.00	312.00
98.00	273.00
99.00	280.00
100.00	276.00
101.00	283.00
102.00	289.00
103.00	295.00
104.00	290.00
105.00	284.00
106.00	290.00
107.00	259.00
108.00	259.00
109.00	263.00
110.00	271.00
111.00	293.00
112.00	237.00
113.00	274.00
114.00	246.00
115.00	278.00
116.00	275.00
117.00	236.00
118.00	280.00
119.00	297.00
120.00	299.00
121.00	274.00
122.00	244.00
123.00	242.00
124.00	235.00
125.00	239.00
126.00	233.00
127.00	243.00
128.00	217.00
129.00	230.00
130.00	216.00
131.00	247.00
132.00	237.00
133.00	214.00
134.00	235.00
135.00	253.00
136.00	295.00
137.00	300.00
138.00	422.00
139.00	535.00
140.00	715.00
141.00	854.00
142.00	1074.00
143.00	1182.00
144.00	1262.00
145.00	1278.00
146.00	1203.00
147.00	1125.00
148.00	1026.00
149.00	862.00
150.00	718.00
151.00	667.00
152.00	587.00
153.00	598.00
154.00	526.00
155.00	496.00
156.00	412.00
157.00	356.00
158.00	411.00
159.00	468.00
160.00	738.00
161.00	1167.00
162.00	1727.00
163.00	2822.00
164.00	4117.00
165.00	5858.00
166.00	7469.00
167.00	9172.00
168.00	10283.00
169.00	10772.00
170.00	10325.00
171.00	9267.00
172.00	7794.00
173.00	6063.00
174.00	4517.00
175.00	3310.00
176.00	2376.00
177.00	1779.00
178.00	1361.00
179.00	1196.00
180.00	1149.00
181.00	1148.00
182.00	1222.00
183.00	1418.00
184.00	1672.00
185.00	2167.00
186.00	2547.00
187.00	2907.00
188.00	3286.00
189.00	3467.00
190.00	3470.00
191.00	3092.00
192.00	2589.00
193.00	2109.00
194.00	1664.00
195.00	1178.00
196.00	868.00
197.00	637.00
198.00	495.00
199.00	371.00
200.00	331.00
201.00	310.00
202.00	248.00
203.00	280.00
204.00	276.00
205.00	271.00
206.00	279.00
207.00	284.00
208.00	272.00
209.00	264.00
210.00	290.00
211.00	299.00
212.00	331.00
213.00	330.00
214.00	401.00
215.00	414.00
216.00	481.00
217.00	566.00
218.00	602.00
219.00	632.00
220.00	704.00
221.00	709.00
222.00	656.00
223.00	637.00
224.00	518.00
225.00	447.00
226.00	428.00
227.00	415.00
228.00	305.00
229.00	312.00
230.00	296.00
231.00	242.00
232.00	262.00
233.00	223.00
234.00	245.00
235.00	243.00
236.00	241.00
237.00	214.00
238.00	240.00
239.00	247.00
240.00	210.00
241.00	262.00
242.00	244.00
243.00	249.00
244.00	255.00
245.00	239.00
246.00	231.00
247.00	257.00
248.00	253.00
249.00	264.00
250.00	291.00
251.00	309.00
252.00	284.00
253.00	278.00
254.00	314.00
255.00	327.00
256.00	293.00
257.00	287.00
258.00	294.00
259.00	329.00
260.00	314.00
261.00	301.00
262.00	298.00
263.00	296.00
264.00	327.00
265.00	329.00
266.00	304.00
267.00	338.00
268.00	345.00
269.00	351.00
270.00	337.00
271.00	327.00
272.00	313.00
273.00	311.00
274.00	339.00
275.00	327.00
276.00	380.00
277.00	434.00
278.00	501.00
279.00	660.00
280.00	867.00
281.00	1093.00
282.00	1324.00
283.00	1600.00
284.00	1846.00
285.00	2181.00
286.00	2315.00
287.00	2321.00
288.00	2140.00
289.00	1984.00
290.00	1736.00
291.00	1600.00
292.00	1304.00
293.00	1005.00
294.00	872.00
295.00	624.00
296.00	513.00
297.00	459.00
298.00	424.00
299.00	415.00
300.00	431.00
301.00	464.00
302.00	503.00
303.00	466.00
304.00	595.00
305.00	610.00
306.00	697.00
307.00	817.00
308.00	1005.00
309.00	1229.00
310.00	1588.00
311.00	2214.00
312.00	3078.00
313.00	4405.00
314.00	6187.00
315.00	8523.00
316.00	11171.00
317.00	14166.00
318.00	16857.00
319.00	19037.00
320.00	20927.00
321.00	21499.00
322.00	20681.00
323.00	19555.00
324.00	17532.00
325.00	14935.00
326.00	11988.00
327.00	9102.00
328.00	6657.00
329.00	4635.00
330.00	3210.00
331.00	2233.00
332.00	1513.00
333.00	1176.00
334.00	912.00
335.00	882.00
336.00	919.00
337.00	1080.00
338.00	1252.00
339.00	1656.00
340.00	1992.00
341.00	2799.00
342.00	3585.00
343.00	5186.00
344.00	7279.00
345.00	10637.00
346.00	16326.00
347.00	24095.00
348.00	35939.00
349.00	52615.00
350.00	74804.00
351.00	102206.00
352.00	135408.00
353.00	170992.00
354.00	206273.00
355.00	236323.00
356.00	261074.00
357.00	272794.00
358.00	273834.00
359.00	261088.00
360.00	238574.00
361.00	206985.00
362.00	171557.00
363.00	135247.00
364.00	101869.00
365.00	73842.00
366.00	51160.00
367.00	33383.00
368.00	21508.00
369.00	13260.00
370.00	8136.00
371.00	5021.00
372.00	3476.00
373.00	2619.00
374.00	2366.00
375.00	2499.00
376.00	3091.00
377.00	3959.00
378.00	5198.00
379.00	7141.00
380.00	9778.00
381.00	12990.00
382.00	16759.00
383.00	21628.00
384.00	26389.00
385.00	31570.00
386.00	35711.00
387.00	38967.00
388.00	40867.00
389.00	40857.00
390.00	39189.00
391.00	36017.00
392.00	31975.00
393.00	27148.00
394.00	22166.00
395.00	17167.00
396.00	12843.00
397.00	9193.00
398.00	6244.00
399.00	4430.00
400.00	2831.00
401.00	1884.00
402.00	1321.00
403.00	822.00
404.00	598.00
405.00	500.00
406.00	395.00
407.00	374.00
408.00	320.00
409.00	321.00
410.00	313.00
411.00	290.00
412.00	343.00
413.00	311.00
414.00	329.00
415.00	320.00
416.00	380.00
417.00	355.00
418.00	394.00
419.00	417.00
420.00	417.00
421.00	478.00
422.00	591.00
423.00	758.00
424.00	1014.00
425.00	1402.00
426.00	1802.00
427.00	2589.00
428.00	3424.00
429.00	4389.00
430.00	5761.00
431.00	7280.00
432.00	8534.00
433.00	9867.00
434.00	10946.00
435.00	11783.00
436.00	11978.00
437.00	12078.00
438.00	11528.00
439.00	10500.00
440.00	9753.00
441.00	8141.00
442.00	6681.00
443.00	5649.00
444.00	4533.00
445.00	3763.00
446.00	3104.00
447.00	2851.00
448.00	2525.00
449.00	2329.00
450.00	2195.00
451.00	2006.00
452.00	1983.00
453.00	1755.00
454.00	1464.00
455.00	1443.00
456.00	1288.00
457.00	1048.00
458.00	979.00
459.00	926.00
460.00	912.00
461.00	871.00
462.00	896.00
463.00	958.00
464.00	1039.00
465.00	1161.00
466.00	1219.00
467.00	1388.00
468.00	1584.00
469.00	1625.00
470.00	1973.00
471.00	2110.00
472.00	2279.00
473.00	2598.00
474.00	2932.00
475.00	3008.00
476.00	3112.00
477.00	3167.00
478.00	3302.00
479.00	3116.00
480.00	2879.00
481.00	2631.00
482.00	2386.00
483.00	2084.00
484.00	1788.00
485.00	1582.00
486.00	1291.00
487.00	1104.00
488.00	975.00
489.00	883.00
490.00	793.00
491.00	725.00
492.00	760.00
493.00	760.00
494.00	737.00
495.00	793.00
496.00	752.00
497.00	809.00
498.00	771.00
499.00	811.00
500.00	838.00
501.00	917.00
502.00	915.00
503.00	992.00
504.00	1003.00
505.00	990.00
506.00	1010.00
507.00	1012.00
508.00	1111.00
509.00	1105.00
510.00	1170.00
511.00	1211.00
512.00	1226.00
513.00	1239.00
514.00	1323.00
515.00	1431.00
516.00	1418.00
517.00	1546.00
518.00	1589.00
519.00	1708.00
520.00	1771.00
521.00	1824.00
522.00	1882.00
523.00	1820.00
524.00	1890.00
525.00	1915.00
526.00	1785.00
527.00	1699.00
528.00	1652.00
529.00	1577.00
530.00	1540.00
531.00	1434.00
532.00	1361.00
533.00	1338.00
534.00	1315.00
535.00	1271.00
536.00	1297.00
537.00	1316.00
538.00	1253.00
539.00	1313.00
540.00	1368.00
541.00	1322.00
542.00	1325.00
543.00	1282.00
544.00	1391.00
545.00	1444.00
546.00	1359.00
547.00	1341.00
548.00	1424.00
549.00	1472.00
550.00	1510.00
551.00	1561.00
552.00	1588.00
553.00	1686.00
554.00	1820.00
555.00	2076.00
556.00	2406.00
557.00	2816.00
558.00	3336.00
559.00	4197.00
560.00	5279.00
561.00	6650.00
562.00	8211.00
563.00	10186.00
564.00	11868.00
565.00	14078.00
566.00	16060.00
567.00	17502.00
568.00	19086.00
569.00	19816.00
570.00	20076.00
571.00	19265.00
572.00	18479.00
573.00	17096.00
574.00	15348.00
575.00	13606.00
576.00	11265.00
577.00	9278.00
578.00	7687.00
579.00	6080.00
580.00	4861.00
581.00	3959.00
582.00	3103.00
583.00	2554.00
584.00	2255.00
585.00	2096.00
586.00	1795.00
587.00	1790.00
588.00	1807.00
589.00	1805.00
590.00	1851.00
591.00	1943.00
592.00	2027.00
593.00	2091.00
594.00	2294.00
595.00	2336.00
596.00	2599.00
597.00	2993.00
598.00	3457.00
599.00	4462.00
600.00	5494.00
601.00	7166.00
602.00	10038.00
603.00	13982.00
604.00	19771.00
605.00	28062.00
606.00	39668.00
607.00	55608.00
608.00	75834.00
609.00	101123.00
610.00	131440.00
611.00	165658.00
612.00	204878.00
613.00	243663.00
614.00	282278.00
615.00	318628.00
616.00	348105.00
617.00	369694.00
618.00	380297.00
619.00	381896.00
620.00	368996.00
621.00	345887.00
622.00	317182.00
623.00	281423.00
624.00	242262.00
625.00	201994.00
626.00	163981.00
627.00	129001.00
628.00	99120.00
629.00	74378.00
630.00	54602.00
631.00	39100.00
632.00	28071.00
633.00	19476.00
634.00	13799.00
635.00	9879.00
636.00	7184.00
637.00	5554.00
638.00	4633.00
639.00	3893.00
640.00	3409.00
641.00	3227.00
642.00	3063.00
643.00	2989.00
644.00	2997.00
645.00	2924.00
646.00	2908.00
647.00	2835.00
648.00	2924.00
649.00	2886.00
650.00	3000.00
651.00	3008.00
652.00	3097.00
653.00	3119.00
654.00	3176.00
655.00	3321.00
656.00	3432.00
657.00	3610.00
658.00	3609.00
659.00	3659.00
660.00	4085.00
661.00	4143.00
662.00	4428.00
663.00	4756.00
664.00	5255.00
665.00	6047.00
666.00	6897.00
667.00	8040.00
668.00	9638.00
669.00	11446.00
670.00	14155.00
671.00	17311.00
672.00	21113.00
673.00	26036.00
674.00	31067.00
675.00	36151.00
676.00	41513.00
677.00	47254.00
678.00	52405.00
679.00	56501.00
680.00	59457.00
681.00	60852.00
682.00	61463.00
683.00	59725.00
684.00	56870.00
685.00	52829.00
686.00	47278.00
687.00	41617.00
688.00	35850.00
689.00	30229.00
690.00	24676.00
691.00	19859.00
692.00	15685.00
693.00	12315.00
694.00	9698.00
695.00	7382.00
696.00	5888.00
697.00	4711.00
698.00	3866.00
699.00	3444.00
700.00	3107.00
701.00	2913.00
702.00	2749.00
703.00	2642.00
704.00	2693.00
705.00	2785.00
706.00	2764.00
707.00	2930.00
708.00	3010.00
709.00	3050.00
710.00	3201.00
711.00	3216.00
712.00	3485.00
713.00	3688.00
714.00	3746.00
715.00	3771.00
716.00	3992.00
717.00	4316.00
718.00	4460.00
719.00	4477.00
720.00	4631.00
721.00	4541.00
722.00	4544.00
723.00	4461.00
724.00	4449.00
725.00	4230.00
726.00	4099.00
727.00	3960.00
728.00	3823.00
729.00	3659.00
730.00	3371.00
731.00	3492.00
732.00	3189.00
733.00	3155.00
734.00	3025.00
735.00	2918.00
736.00	2894.00
737.00	2871.00
738.00	2779.00
739.00	2802.00
740.00	2794.00
741.00	2819.00
742.00	2738.00
743.00	2741.00
744.00	2778.00
745.00	2767.00
746.00	2716.00
747.00	2747.00
748.00	2820.00
749.00	2725.00
750.00	2622.00
751.00	2740.00
752.00	2652.00
753.00	2684.00
754.00	2759.00
755.00	2753.00
756.00	2783.00
757.00	2757.00
758.00	2849.00
759.00	2882.00
760.00	2990.00
761.00	2880.00
762.00	3185.00
763.00	3037.00
764.00	3209.00
765.00	3345.00
766.00	3411.00
767.00	3641.00
768.00	3724.00
769.00	3936.00
770.00	4133.00
771.00	4181.00
772.00	4355.00
773.00	4697.00
774.00	4749.00
775.00	4543.00
776.00	4723.00
777.00	4963.00
778.00	5010.00
779.00	4858.00
780.00	4780.00
781.00	4757.00
782.00	4511.00
783.00	4563.00
784.00	4424.00
785.00	4465.00
786.00	4289.00
787.00	4218.00
788.00	4140.00
789.00	4244.00
790.00	4130.00
791.00	4223.00
792.00	4176.00
793.00	4367.00
794.00	4295.00
795.00	4434.00
796.00	4342.00
797.00	4279.00
798.00	4389.00
799.00	4498.00
800.00	4406.00
801.00	4414.00
802.00	4609.00
803.00	4555.00
804.00	4605.00
805.00	4561.00
806.00	4681.00
807.00	4600.00
808.00	4733.00
809.00	4693.00
810.00	4774.00
811.00	4648.00
812.00	4730.00
813.00	4621.00
814.00	4562.00
815.00	4720.00
816.00	4689.00
817.00	4756.00
818.00	4810.00
819.00	4725.00
820.00	4787.00
821.00	4793.00
822.00	5031.00
823.00	5159.00
824.00	5319.00
825.00	5486.00
826.00	5780.00
827.00	5904.00
828.00	6155.00
829.00	6204.00
830.00	6456.00
831.00	6609.00
832.00	6766.00
833.00	6774.00
834.00	6660.00
835.00	6694.00
836.00	6593.00
837.00	6566.00
838.00	6245.00
839.00	6204.00
840.00	5991.00
841.00	5543.00
842.00	5468.00
843.00	5348.00
844.00	5293.00
845.00	4936.00
846.00	4966.00
847.00	4933.00
848.00	4786.00
849.00	4791.00
850.00	4617.00
851.00	4783.00
852.00	4674.00
853.00	4764.00
854.00	4791.00
855.00	4833.00
856.00	4809.00
857.00	4860.00
858.00	4822.00
859.00	4943.00
860.00	4903.00
861.00	4844.00
862.00	4988.00
863.00	4838.00
864.00	4920.00
865.00	4761.00
866.00	4868.00
867.00	4894.00
868.00	4858.00
869.00	4705.00
870.00	4821.00
871.00	4747.00
872.00	4751.00
873.00	4747.00
874.00	4790.00
875.00	4788.00
876.00	4923.00
877.00	4918.00
878.00	4870.00
879.00	4902.00
880.00	5069.00
881.00	4981.00
882.00	5079.00
883.00	5248.00
884.00	5232.00
885.00	5179.00
886.00	5138.00
887.00	5338.00
888.00	5376.00
889.00	5485.00
890.00	5542.00
891.00	5461.00
892.00	5541.00
893.00	5597.00
894.00	5553.00
895.00	5589.00
896.00	5602.00
897.00	5571.00
898.00	5563.00
899.00	5607.00
900.00	5521.00
901.00	5513.00
902.00	5492.00
903.00	5415.00
904.00	5352.00
905.00	5440.00
906.00	5341.00
907.00	5342.00
908.00	5475.00
909.00	5511.00
910.00	5495.00
911.00	5590.00
912.00	5678.00
913.00	5555.00
914.00	5552.00
915.00	5548.00
916.00	5693.00
917.00	5851.00
918.00	5781.00
919.00	5921.00
920.00	5918.00
921.00	5975.00
922.00	6054.00
923.00	6039.00
924.00	5972.00
925.00	6094.00
926.00	6184.00
927.00	6127.00
928.00	6151.00
929.00	6225.00
930.00	6069.00
931.00	6102.00
932.00	6191.00
933.00	5943.00
934.00	6091.00
935.00	6054.00
936.00	5864.00
937.00	6022.00
938.00	6005.00
939.00	5993.00
940.00	5957.00
941.00	5737.00
942.00	5960.00
943.00	5879.00
944.00	5886.00
945.00	5833.00
946.00	5960.00
947.00	5890.00
948.00	5867.00
949.00	5927.00
950.00	5801.00
951.00	5954.00
952.00	5732.00
953.00	5825.00
954.00	5776.00
955.00	5855.00
956.00	6053.00
957.00	5927.00
958.00	6020.00
959.00	6061.00
960.00	6098.00
961.00	6020.00
962.00	6061.00
963.00	6121.00
964.00	6191.00
965.00	6309.00
966.00	6390.00
967.00	6444.00
968.00	6353.00
969.00	6574.00
970.00	6584.00
971.00	6507.00
972.00	6633.00
973.00	6746.00
974.00	6609.00
975.00	6548.00
976.00	6593.00
977.00	6730.00
978.00	6591.00
979.00	6489.00
980.00	6336.00
981.00	6322.00
982.00	6379.00
983.00	6215.00
984.00	6193.00
985.00	6060.00
986.00	6050.00
987.00	6109.00
988.00	6027.00
989.00	6035.00
990.00	6112.00
991.00	6151.00
992.00	6138.00
993.00	6027.00
994.00	5867.00
995.00	5944.00
996.00	6177.00
997.00	5902.00
998.00	6082.00
999.00	6004.00
1000.00	6146.00
1001.00	6084.00
1002.00	6044.00
1003.00	6126.00
1004.00	6151.00
1005.00	6152.00
1006.00	6136.00
1007.00	6147.00
1008.00	6422.00
1009.00	6292.00
1010.00	6362.00
1011.00	6397.00
1012.00	6288.00
1013.00	6299.00
1014.00	6263.00
1015.00	6453.00
1016.00	6591.00
1017.00	6376.00
1018.00	6553.00
1019.00	6354.00
1020.00	6457.00
1021.00	6351.00
1022.00	6407.00
1023.00	6314.00
1024.00	6288.00
1025.00	6325.00
1026.00	6250.00
1027.00	6288.00
1028.00	6260.00
1029.00	6254.00
1030.00	6150.00
1031.00	6210.00
1032.00	6191.00
1033.00	6352.00
1034.00	6233.00
1035.00	6294.00
1036.00	6329.00
1037.00	6309.00
1038.00	6263.00
1039.00	6210.00
1040.00	6318.00
1041.00	6272.00
1042.00	6326.00
1043.00	6298.00
1044.00	6294.00
1045.00	6348.00
1046.00	6266.00
1047.00	6348.00
1048.00	6257.00
1049.00	6270.00
1050.00	6394.00
1051.00	6406.00
1052.00	6424.00
1053.00	6453.00
1054.00	6403.00
1055.00	6401.00
1056.00	6148.00
1057.00	6244.00
1058.00	6224.00
1059.00	6367.00
1060.00	6306.00
1061.00	6409.00
1062.00	6352.00
1063.00	6489.00
1064.00	6292.00
1065.00	6266.00
1066.00	6415.00
1067.00	6312.00
1068.00	6280.00
1069.00	6297.00
1070.00	6401.00
1071.00	6397.00
1072.00	6474.00
1073.00	6385.00
1074.00	6386.00
1075.00	6478.00
1076.00	6419.00
1077.00	6428.00
1078.00	6472.00
1079.00	6291.00
1080.00	6487.00
1081.00	6610.00
1082.00	6408.00
1083.00	6597.00
1084.00	6354.00
1085.00	6515.00
1086.00	6433.00
1087.00	6436.00
1088.00	6528.00
1089.00	6318.00
1090.00	6510.00
1091.00	6510.00
1092.00	6509.00
1093.00	6629.00
1094.00	6453.00
1095.00	6393.00
1096.00	6545.00
1097.00	6560.00
1098.00	6494.00
1099.00	6450.00
1100.00	6703.00
1101.00	6472.00
1102.00	6586.00
1103.00	6544.00
1104.00	6512.00
1105.00	6569.00
1106.00	6562.00
1107.00	6643.00
1108.00	6605.00
1109.00	6516.00
1110.00	6530.00
1111.00	6532.00
1112.00	6709.00
1113.00	6506.00
1114.00	6547.00
1115.00	6570.00
1116.00	6746.00
1117.00	6611.00
1118.00	6505.00
1119.00	6725.00
1120.00	6611.00
1121.00	6739.00
1122.00	6589.00
1123.00	6639.00
1124.00	6650.00
1125.00	6535.00
1126.00	6608.00
1127.00	6586.00
1128.00	6593.00
1129.00	6512.00
1130.00	6704.00
1131.00	6520.00
1132.00	6623.00
1133.00	6515.00
1134.00	6705.00
1135.00	6585.00
1136.00	6711.00
1137.00	6554.00
1138.00	6550.00
1139.00	6513.00
1140.00	6666.00
1141.00	6642.00
1142.00	6555.00
1143.00	6548.00
1144.00	6667.00
1145.00	6723.00
1146.00	6810.00
1147.00	6700.00
1148.00	6691.00
1149.00	6528.00
1150.00	6659.00
1151.00	6578.00
1152.00	6498.00
1153.00	6651.00
1154.00	6534.00
1155.00	6640.00
1156.00	6482.00
1157.00	6570.00
1158.00	6566.00
1159.00	6535.00
1160.00	6424.00
1161.00	6430.00
1162.00	6504.00
1163.00	6543.00
1164.00	6412.00
1165.00	6547.00
1166.00	6358.00
1167.00	6565.00
1168.00	6464.00
1169.00	6449.00
1170.00	6449.00
1171.00	6609.00
1172.00	6486.00
1173.00	6478.00
1174.00	6396.00
1175.00	6678.00
1176.00	6478.00
1177.00	6416.00
1178.00	6534.00
1179.00	6398.00
1180.00	6525.00
1181.00	6428.00
1182.00	6588.00
1183.00	6575.00
1184.00	6519.00
1185.00	6626.00
1186.00	6565.00
1187.00	6624.00
1188.00	6523.00
1189.00	6700.00
1190.00	6712.00
1191.00	6615.00
1192.00	6721.00
1193.00	6425.00
1194.00	6577.00
1195.00	6660.00
1196.00	6640.00
1197.00	6684.00
1198.00	6563.00
1199.00	6762.00
1200.00	6576.00
1201.00	6673.00
1202.00	6630.00
1203.00	6586.00
1204.00	6841.00
1205.00	6547.00
1206.00	6691.00
1207.00	6580.00
1208.00	6707.00
1209.00	6830.00
1210.00	6751.00
1211.00	6655.00
1212.00	6778.00
1213.00	6754.00
1214.00	6715.00
1215.00	6951.00
1216.00	6934.00
1217.00	6830.00
1218.00	6946.00
1219.00	6923.00
1220.00	6849.00
1221.00	6777.00
1222.00	6964.00
1223.00	7005.00
1224.00	7078.00
1225.00	6923.00
1226.00	6987.00
1227.00	7011.00
1228.00	6951.00
1229.00	7151.00
1230.00	7039.00
1231.00	7082.00
1232.00	7307.00
1233.00	7118.00
1234.00	7316.00
1235.00	7302.00
1236.00	7182.00
1237.00	6985.00
1238.00	7255.00
1239.00	6913.00
1240.00	7132.00
1241.00	6953.00
1242.00	7062.00
1243.00	6787.00
1244.00	6886.00
1245.00	6941.00
1246.00	6876.00
1247.00	6588.00
1248.00	6589.00
1249.00	6610.00
1250.00	6629.00
1251.00	6667.00
1252.00	6757.00
1253.00	6465.00
1254.00	6630.00
1255.00	6437.00
1256.00	6436.00
1257.00	6417.00
1258.00	6425.00
1259.00	6485.00
1260.00	6581.00
1261.00	6438.00
1262.00	6540.00
1263.00	6540.00
1264.00	6645.00
1265.00	6503.00
1266.00	6477.00
1267.00	6410.00
1268.00	6334.00
1269.00	6409.00
1270.00	6558.00
1271.00	6530.00
1272.00	6705.00
1273.00	6566.00
1274.00	6732.00
1275.00	6549.00
1276.00	6629.00
1277.00	6766.00
1278.00	6861.00
1279.00	6871.00
1280.00	7140.00
1281.00	7003.00
1282.00	7202.00
1283.00	7354.00
1284.00	7349.00
1285.00	7367.00
1286.00	7367.00
1287.00	7325.00
1288.00	7590.00
1289.00	7659.00
1290.00	7623.00
1291.00	7456.00
1292.00	7568.00
1293.00	7688.00
1294.00	7544.00
1295.00	7438.00
1296.00	7553.00
1297.00	7386.00
1298.00	7187.00
1299.00	7155.00
1300.00	7081.00
1301.00	7098.00
1302.00	6829.00
1303.00	6944.00
1304.00	6604.00
1305.00	6806.00
1306.00	6646.00
1307.00	6426.00
1308.00	6514.00
1309.00	6387.00
1310.00	6306.00
1311.00	6344.00
1312.00	6499.00
1313.00	6388.00
1314.00	6425.00
1315.00	6351.00
1316.00	6383.00
1317.00	6353.00
1318.00	6411.00
1319.00	6293.00
1320.00	6273.00
1321.00	6314.00
1322.00	6402.00
1323.00	6270.00
1324.00	6350.00
1325.00	6160.00
1326.00	6254.00
1327.00	6145.00
1328.00	6192.00
1329.00	6202.00
1330.00	6292.00
1331.00	6179.00
1332.00	6169.00
1333.00	6234.00
1334.00	6228.00
1335.00	6263.00
1336.00	6230.00
1337.00	6429.00
1338.00	6188.00
1339.00	6483.00
1340.00	6269.00
1341.00	6340.00
1342.00	6337.00
1343.00	6412.00
1344.00	6537.00
1345.00	6626.00
1346.00	6853.00
1347.00	6926.00
1348.00	7041.00
1349.00	7373.00
1350.00	7760.00
1351.00	7963.00
1352.00	8244.00
1353.00	8751.00
1354.00	8960.00
1355.00	9203.00
1356.00	9503.00
1357.00	10203.00
1358.00	10473.00
1359.00	10597.00
1360.00	11018.00
1361.00	11337.00
1362.00	11349.00
1363.00	11696.00
1364.00	11550.00
1365.00	11628.00
1366.00	11487.00
1367.00	11358.00
1368.00	11009.00
1369.00	10826.00
1370.00	10452.00
1371.00	10175.00
1372.00	9466.00
1373.00	9371.00
1374.00	8841.00
1375.00	8563.00
1376.00	7966.00
1377.00	7693.00
1378.00	7402.00
1379.00	7158.00
1380.00	6799.00
1381.00	6579.00
1382.00	6409.00
1383.00	6259.00
1384.00	6147.00
1385.00	6065.00
1386.00	5959.00
1387.00	5858.00
1388.00	6030.00
1389.00	5861.00
1390.00	5664.00
1391.00	5763.00
1392.00	5772.00
1393.00	5621.00
1394.00	5591.00
1395.00	5602.00
1396.00	5564.00
1397.00	5637.00
1398.00	5548.00
1399.00	5497.00
1400.00	5774.00
1401.00	5542.00
1402.00	5544.00
1403.00	5674.00
1404.00	5645.00
1405.00	5570.00
1406.00	5489.00
1407.00	5529.00
1408.00	5419.00
1409.00	5643.00
1410.00	5564.00
1411.00	5489.00
1412.00	5462.00
1413.00	5500.00
1414.00	5482.00
1415.00	5555.00
1416.00	5458.00
1417.00	5578.00
1418.00	5632.00
1419.00	5588.00
1420.00	5524.00
1421.00	5630.00
1422.00	5464.00
1423.00	5564.00
1424.00	5585.00
1425.00	5727.00
1426.00	5603.00
1427.00	5536.00
1428.00	5568.00
1429.00	5601.00
1430.00	5745.00
1431.00	5696.00
1432.00	5610.00
1433.00	5776.00
1434.00	5766.00
1435.00	5758.00
1436.00	5877.00
1437.00	5770.00
1438.00	5806.00
1439.00	5819.00
1440.00	5805.00
1441.00	5850.00
1442.00	5860.00
1443.00	5828.00
1444.00	5746.00
1445.00	5784.00
1446.00	5819.00
1447.00	5793.00
1448.00	5727.00
1449.00	5654.00
1450.00	5674.00
1451.00	5640.00
1452.00	5640.00
1453.00	5355.00
1454.00	5503.00
1455.00	5443.00
1456.00	5389.00
1457.00	5373.00
1458.00	5415.00
1459.00	5312.00
1460.00	5320.00
1461.00	5333.00
1462.00	5371.00
1463.00	5382.00
1464.00	5238.00
1465.00	5325.00
1466.00	5361.00
1467.00	5262.00
1468.00	5339.00
1469.00	5338.00
1470.00	5268.00
1471.00	5331.00
1472.00	5234.00
1473.00	5432.00
1474.00	5209.00
1475.00	5293.00
1476.00	5221.00
1477.00	5214.00
1478.00	5275.00
1479.00	5310.00
1480.00	5317.00
1481.00	5177.00
1482.00	5245.00
1483.00	5166.00
1484.00	5233.00
1485.00	5135.00
1486.00	5144.00
1487.00	5091.00
1488.00	5179.00
1489.00	5136.00
1490.00	5186.00
1491.00	5235.00
1492.00	5172.00
1493.00	5229.00
1494.00	5157.00
1495.00	5055.00
1496.00	5332.00
1497.00	5199.00
1498.00	5217.00
1499.00	5189.00
1500.00	5343.00
1501.00	5350.00
1502.00	5364.00
1503.00	5451.00
1504.00	5351.00
1505.00	5537.00
1506.00	5562.00
1507.00	5558.00
1508.00	5458.00
1509.00	5612.00
1510.00	5816.00
1511.00	5849.00
1512.00	5824.00
1513.00	5968.00
1514.00	6010.00
1515.00	6172.00
1516.00	6159.00
1517.00	6290.00
1518.00	6274.00
1519.00	6431.00
1520.00	6510.00
1521.00	6549.00
1522.00	6517.00
1523.00	6683.00
1524.00	6534.00
1525.00	6549.00
1526.00	6620.00
1527.00	6630.00
1528.00	6549.00
1529.00	6533.00
1530.00	6450.00
1531.00	6516.00
1532.00	6320.00
1533.00	6123.00
1534.00	6196.00
1535.00	6223.00
1536.00	6072.00
1537.00	6096.00
1538.00	6050.00
1539.00	5827.00
1540.00	5810.00
1541.00	5760.00
1542.00	5758.00
1543.00	5890.00
1544.00	5815.00
1545.00	5825.00
1546.00	5832.00
1547.00	5850.00
1548.00	5863.00
1549.00	6036.00
1550.00	5996.00
1551.00	6122.00
1552.00	6157.00
1553.00	6258.00
1554.00	6191.00
1555.00	6254.00
1556.00	6293.00
1557.00	6312.00
1558.00	6356.00
1559.00	6503.00
1560.00	6580.00
1561.00	6642.00
1562.00	6662.00
1563.00	6922.00
1564.00	6933.00
1565.00	6952.00
1566.00	7058.00
1567.00	7088.00
1568.00	7399.00
1569.00	7212.00
1570.00	7560.00
1571.00	7619.00
1572.00	7682.00
1573.00	7794.00
1574.00	7964.00
1575.00	7958.00
1576.00	8080.00
1577.00	8159.00
1578.00	8450.00
1579.00	8340.00
1580.00	8696.00
1581.00	8534.00
1582.00	8469.00
1583.00	8847.00
1584.00	8662.00
1585.00	8772.00
1586.00	8791.00
1587.00	8872.00
1588.00	8779.00
1589.00	8779.00
1590.00	8643.00
1591.00	8705.00
1592.00	8628.00
1593.00	8779.00
1594.00	8722.00
1595.00	8773.00
1596.00	8694.00
1597.00	8525.00
1598.00	8427.00
1599.00	8505.00
1600.00	8485.00
1601.00	8242.00
1602.00	8053.00
1603.00	8017.00
1604.00	7964.00
1605.00	7668.00
1606.00	7608.00
1607.00	7610.00
1608.00	7666.00
1609.00	7294.00
1610.00	7190.00
1611.00	7125.00
1612.00	7137.00
1613.00	7082.00
1614.00	6897.00
1615.00	6655.00
1616.00	6454.00
1617.00	6545.00
1618.00	6326.00
1619.00	6349.00
1620.00	5956.00
1621.00	5957.00
1622.00	5997.00
1623.00	5598.00
1624.00	5650.00
1625.00	5583.00
1626.00	5578.00
1627.00	5361.00
1628.00	5202.00
1629.00	5210.00
1630.00	5207.00
1631.00	5034.00
1632.00	5088.00
1633.00	5125.00
1634.00	5032.00
1635.00	4856.00
1636.00	4792.00
1637.00	4650.00
1638.00	4689.00
1639.00	4676.00
1640.00	4664.00
1641.00	4639.00
1642.00	4591.00
1643.00	4561.00
1644.00	4425.00
1645.00	4478.00
1646.00	4401.00
1647.00	4403.00
1648.00	4340.00
1649.00	4398.00
1650.00	4279.00
1651.00	4243.00
1652.00	4315.00
1653.00	4237.00
1654.00	4366.00
1655.00	4270.00
1656.00	4237.00
1657.00	4330.00
1658.00	4434.00
1659.00	4343.00
1660.00	4520.00
1661.00	4530.00
1662.00	4719.00
1663.00	4847.00
1664.00	4822.00
1665.00	5070.00
1666.00	5312.00
1667.00	5356.00
1668.00	5703.00
1669.00	5805.00
1670.00	6158.00
1671.00	6327.00
1672.00	6557.00
1673.00	6751.00
1674.00	7086.00
1675.00	7205.00
1676.00	7405.00
1677.00	7584.00
1678.00	7835.00
1679.00	7854.00
1680.00	8275.00
1681.00	8257.00
1682.00	8453.00
1683.00	8106.00
1684.00	8094.00
1685.00	7935.00
1686.00	7941.00
1687.00	7885.00
1688.00	7577.00
1689.00	7260.00
1690.00	7132.00
1691.00	6753.00
1692.00	6563.00
1693.00	6177.00
1694.00	5991.00
1695.00	5699.00
1696.00	5386.00
1697.00	4990.00
1698.00	4952.00
1699.00	4631.00
1700.00	4527.00
1701.00	4141.00
1702.00	4013.00
1703.00	4061.00
1704.00	3933.00
1705.00	3749.00
1706.00	3718.00
1707.00	3589.00
1708.00	3552.00
1709.00	3408.00
1710.00	3455.00
1711.00	3369.00
1712.00	3389.00
1713.00	3393.00
1714.00	3232.00
1715.00	3390.00
1716.00	3343.00
1717.00	3278.00
1718.00	3307.00
1719.00	3254.00
1720.00	3297.00
1721.00	3304.00
1722.00	3262.00
1723.00	3343.00
1724.00	3246.00
1725.00	3221.00
1726.00	3273.00
1727.00	3241.00
1728.00	3291.00
1729.00	3186.00
1730.00	3315.00
1731.00	3258.00
1732.00	3391.00
1733.00	3186.00
1734.00	3209.00
1735.00	3213.00
1736.00	3201.00
1737.00	3186.00
1738.00	3216.00
1739.00	3192.00
1740.00	3188.00
1741.00	3269.00
1742.00	3188.00
1743.00	3354.00
1744.00	3147.00
1745.00	3348.00
1746.00	3235.00
1747.00	3245.00
1748.00	3338.00
1749.00	3172.00
1750.00	3319.00
1751.00	3364.00
1752.00	3240.00
1753.00	3332.00
1754.00	3261.00
1755.00	3308.00
1756.00	3340.00
1757.00	3312.00
1758.00	3307.00
1759.00	3399.00
1760.00	3406.00
1761.00	3365.00
1762.00	3394.00
1763.00	3326.00
1764.00	3320.00
1765.00	3335.00
1766.00	3328.00
1767.00	3304.00
1768.00	3282.00
1769.00	3347.00
1770.00	3249.00
1771.00	3423.00
1772.00	3293.00
1773.00	3360.00
1774.00	3378.00
1775.00	3398.00
1776.00	3308.00
1777.00	3349.00
1778.00	3242.00
1779.00	3330.00
1780.00	3280.00
1781.00	3274.00
1782.00	3196.00
1783.00	3207.00
1784.00	3230.00
1785.00	3246.00
1786.00	3188.00
1787.00	3086.00
1788.00	3162.00
1789.00	3043.00
1790.00	3131.00
1791.00	3120.00
1792.00	3043.00
1793.00	2986.00
1794.00	2943.00
1795.00	2955.00
1796.00	2783.00
1797.00	2883.00
1798.00	2827.00
1799.00	2843.00
1800.00	2807.00
1801.00	2829.00
1802.00	2728.00
1803.00	2752.00
1804.00	2723.00
1805.00	2635.00
1806.00	2620.00
1807.00	2574.00
1808.00	2621.00
1809.00	2602.00
1810.00	2509.00
1811.00	2487.00
1812.00	2451.00
1813.00	2376.00
1814.00	2362.00
1815.00	2363.00
1816.00	2334.00
1817.00	2304.00
1818.00	2305.00
1819.00	2336.00
1820.00	2375.00
1821.00	2349.00
1822.00	2306.00
1823.00	2246.00
1824.00	2194.00
1825.00	2247.00
1826.00	2152.00
1827.00	2208.00
1828.00	2185.00
1829.00	2133.00
1830.00	2029.00
1831.00	2047.00
1832.00	2094.00
1833.00	2086.00
1834.00	2009.00
1835.00	2007.00
1836.00	2059.00
1837.00	1984.00
1838.00	1958.00
1839.00	1956.00
1840.00	1943.00
1841.00	1845.00
1842.00	1862.00
1843.00	1895.00
1844.00	1877.00
1845.00	1831.00
1846.00	1899.00
1847.00	1861.00
1848.00	1786.00
1849.00	1804.00
1850.00	1868.00
1851.00	1854.00
1852.00	1751.00
1853.00	1874.00
1854.00	1854.00
1855.00	1758.00
1856.00	1787.00
1857.00	1731.00
1858.00	1780.00
1859.00	1750.00
1860.00	1659.00
1861.00	1680.00
1862.00	1758.00
1863.00	1744.00
1864.00	1679.00
1865.00	1683.00
1866.00	1786.00
1867.00	1678.00
1868.00	1726.00
1869.00	1759.00
1870.00	1628.00
1871.00	1730.00
1872.00	1657.00
1873.00	1713.00
1874.00	1722.00
1875.00	1783.00
1876.00	1785.00
1877.00	1856.00
1878.00	1848.00
1879.00	1851.00
1880.00	1925.00
1881.00	1988.00
1882.00	1958.00
1883.00	1950.00
1884.00	2036.00
1885.00	2039.00
1886.00	1989.00
1887.00	2072.00
1888.00	2051.00
1889.00	2091.00
1890.00	2078.00
1891.00	1967.00
1892.00	2008.00
1893.00	2025.00
1894.00	1988.00
1895.00	2042.00
1896.00	1951.00
1897.00	1849.00
1898.00	1851.00
1899.00	1801.00
1900.00	1763.00
1901.00	1761.00
1902.00	1719.00
1903.00	1679.00
1904.00	1671.00
1905.00	1615.00
1906.00	1538.00
1907.00	1586.00
1908.00	1530.00
1909.00	1484.00
1910.00	1464.00
1911.00	1485.00
1912.00	1407.00
1913.00	1478.00
1914.00	1437.00
1915.00	1467.00
1916.00	1387.00
1917.00	1442.00
1918.00	1396.00
1919.00	1356.00
1920.00	1388.00
1921.00	1379.00
1922.00	1385.00
1923.00	1402.00
1924.00	1395.00
1925.00	1312.00
1926.00	1302.00
1927.00	1308.00
1928.00	1356.00
1929.00	1363.00
1930.00	1284.00
1931.00	1331.00
1932.00	1261.00
1933.00	1179.00
1934.00	1227.00
1935.00	1247.00
1936.00	1146.00
1937.00	1189.00
1938.00	1107.00
1939.00	1158.00
1940.00	1204.00
1941.00	1162.00
1942.00	1119.00
1943.00	1117.00
1944.00	1105.00
1945.00	1152.00
1946.00	1074.00
1947.00	1103.00
1948.00	1129.00
1949.00	1123.00
1950.00	1063.00
1951.00	1109.00
1952.00	1085.00
1953.00	1099.00
1954.00	1070.00
1955.00	1066.00
1956.00	1105.00
1957.00	1125.00
1958.00	1034.00
1959.00	1034.00
1960.00	1059.00
1961.00	1045.00
1962.00	1040.00
1963.00	1013.00
1964.00	1005.00
1965.00	1094.00
1966.00	1059.00
1967.00	960.00
1968.00	1013.00
1969.00	1031.00
1970.00	1003.00
1971.00	1007.00
1972.00	998.00
1973.00	1037.00
1974.00	977.00
1975.00	1028.00
1976.00	974.00
1977.00	1006.00
1978.00	1022.00
1979.00	955.00
1980.00	922.00
1981.00	883.00
1982.00	938.00
1983.00	892.00
1984.00	890.00
1985.00	981.00
1986.00	887.00
1987.00	944.00
1988.00	890.00
1989.00	885.00
1990.00	860.00
1991.00	880.00
1992.00	843.00
1993.00	948.00
1994.00	883.00
1995.00	910.00
1996.00	882.00
1997.00	898.00
1998.00	844.00
1999.00	838.00
2000.00	821.00
2001.00	866.00
2002.00	790.00
2003.00	830.00
2004.00	780.00
2005.00	821.00
2006.00	837.00
2007.00	829.00
2008.00	757.00
2009.00	778.00
2010.00	727.00
2011.00	801.00
2012.00	822.00
2013.00	829.00
2014.00	768.00
2015.00	796.00
2016.00	770.00
2017.00	787.00
2018.00	786.00
2019.00	744.00
2020.00	762.00
2021.00	783.00
2022.00	757.00
2023.00	736.00
2024.00	721.00
2025.00	733.00
2026.00	725.00
2027.00	727.00
2028.00	749.00
2029.00	687.00
2030.00	720.00
2031.00	707.00
2032.00	707.00
2033.00	669.00
2034.00	684.00
2035.00	685.00
2036.00	704.00
2037.00	721.00
2038.00	705.00
2039.00	647.00
2040.00	665.00
2041.00	682.00
2042.00	618.00
2043.00	625.00
2044.00	635.00
2045.00	638.00
2046.00	619.00
2047.00	617.00
2048.00	 0.00
